File: i_data/0.25Kmin/Blank.csv
Blank for NH3-H2O Specific Heat - Large HF,,,,
Creation Date : 6/13/2022 3:40:40 PM,,,,
User : admin,,,,
,,,,
HeatFlow :,,,,
 Initial Mass : 0 mg,,,,
 Molar Mass : N/A,,,,
,,,,
Index,Time(s),Furnace Temperature(K),Sample Temperature(K),HeatFlow(mW)
1,0,297.042,297.237,3.306932
59,672.8,296.07,297.094,-0.131767
117,1345.6,294.06,296.619,-0.286003
175,2018.4,290.739,295.603,-0.175837
233,2691.2,286.205,293.855,0.060326
291,3364,281.274,291.379,0.259045
349,4036.8,276.455,288.309,0.585721
407,4709.6,271.815,284.839,0.839936
465,5382.4,267.375,281.127,1.040367
523,6055.2,263.142,277.286,1.322778
581,6728,259.064,273.396,1.775568
639,7400.8,255.1,269.501,1.888182
697,8073.6,251.261,265.628,2.11375
755,8746.4,247.538,261.804,2.294583
813,9419.2,243.93,258.041,2.072725
871,10092,240.43,254.352,2.052419
929,10764.8,237.032,250.743,1.984481
987,11437.6,233.721,247.215,1.868
1045,12110.4,230.496,243.77,1.535675
1103,12783.2,227.349,240.403,1.087113
1161,13456,224.282,237.117,1.411325
1219,14128.8,221.294,233.907,1.219171
1277,14801.6,218.382,230.774,0.127379
1335,15474.4,215.546,227.717,1.48866
1393,16147.2,212.787,224.734,0.020772
1451,16820,210.097,221.826,0.595312
1509,17492.8,207.466,218.987,0.694355
1567,18165.6,204.907,216.216,-0.205786
1625,18838.4,202.44,213.518,-0.203796
1683,19511.2,200.014,210.885,0.003181
1741,20184,197.677,208.318,-0.823463
1799,20856.8,195.43,205.825,0.761233
1857,21529.6,193.21,203.397,0.081107
1915,22202.4,191.071,201.034,0.626795
1973,22875.2,188.959,198.731,0.902086
2031,23548,186.93,196.486,0.074442
2089,24220.8,184.963,194.304,0.271395
2147,24893.6,183.039,192.179,-0.127776
2205,25566.4,181.157,190.109,-0.335402
2263,26239.2,179.323,188.09,1.152867
2321,26912,177.535,186.122,1.179611
2379,27584.8,175.781,184.2,0.632955
2437,28257.6,174.061,182.324,0.897671
2495,28930.4,172.381,180.489,1.419106
2553,29603.2,170.76,178.698,0.635706
2611,30276,169.187,176.951,1.262293
2669,30948.8,167.641,175.248,0.705368
2727,31621.6,166.126,173.584,1.385647
2785,32294.4,164.637,171.956,1.600377
2843,32967.2,163.182,170.364,0.439108
2901,33640,161.776,168.808,1.15766
2959,34312.8,160.405,167.288,0.966311
3017,34985.6,159.054,165.806,1.235405
3075,35658.4,157.767,164.358,0.755388
3133,36331.2,156.441,162.943,0.967675
3191,37004,155.184,161.552,0.97323
3249,37676.8,153.97,160.199,0.91952
3307,38349.6,152.724,158.868,0.903681
3365,39022.4,151.533,157.567,0.916578
3423,39695.2,150.241,156.275,1.203733
3481,40368,149.061,154.997,0.779619
3539,41040.8,147.972,153.752,0.763181
3597,41713.6,146.856,152.537,0.933835
3655,42386.4,145.8,151.346,0.523586
3713,43059.2,144.682,150.181,0.7023
3771,43732,143.571,149.024,0.688341
3829,44404.8,142.427,147.875,0.723889
3887,45077.6,141.424,146.74,1.008253
3945,45750.4,140.435,145.637,0.799792
4003,46423.2,139.506,144.563,0.841126
4061,47096,138.559,143.515,0.735425
4119,47768.8,137.585,142.489,0.734133
4177,48441.6,136.677,141.477,0.570038
4235,49114.4,135.774,140.486,0.456505
4293,49787.2,134.948,139.523,0.589029
4351,50460,134.169,138.591,0.301032
4409,51132.8,133.394,137.69,0.621942
4467,51805.6,132.575,136.809,0.550024
4525,52478.4,131.813,135.95,0.310862
4583,53151.2,130.997,135.099,0.505316
4641,53824,130.253,134.268,0.084695
4699,54496.8,129.498,133.447,0.283875
4757,55169.6,128.78,132.649,0.341319
4815,55842.4,128.053,131.861,0.345277
4873,56515.2,127.331,131.091,0.145607
4931,57188,126.596,130.324,0.119289
4989,57860.8,125.969,129.577,0.212263
5047,58533.6,125.271,128.844,0.298886
5105,59206.4,124.679,128.128,0.068141
5163,59879.2,124.035,127.435,0.109145
5221,60552,123.381,126.748,0.183588
5279,61224.8,122.846,126.076,0.191039
5337,61897.6,122.369,125.444,0.05215
5395,62570.4,121.79,124.827,-0.005629
5453,63243.2,121.257,124.221,-0.011865
5511,63916,120.74,123.635,0.142049
5569,64588.8,120.207,123.056,-0.183259
5627,65261.6,119.707,122.493,-0.111089
5685,65934.4,119.226,121.941,-0.159912
5743,66607.2,118.727,121.404,-0.207623
5801,67280,118.246,120.872,-0.264891
5859,67952.8,117.828,120.361,-0.153151
5917,68625.6,117.371,119.859,-0.269545
5975,69298.4,117.03,119.381,-0.297782
6033,69971.2,116.627,118.92,-0.359476
6091,70644,116.271,118.478,-0.354961
6149,71316.8,115.963,118.055,-0.357435
6207,71989.6,115.67,117.66,-0.331856
6265,72662.4,115.219,117.265,-0.386818
6323,73335.2,114.835,116.865,-0.407126
6381,74008,114.502,116.475,-0.316997
6439,74680.8,114.192,116.095,-0.352075
6497,75353.6,113.861,115.731,-0.338323
6555,76026.4,113.552,115.371,-0.367902
6613,76699.2,113.281,115.028,-0.374176
6671,77372,113.054,114.702,-0.418032
6729,78044.8,112.8729,114.4,-0.353512
6787,78717.6,112.697,114.121,-0.395876
6845,79390.4,112.518,113.864,-0.38449
6903,80063.2,112.346,113.618,-0.418188
6961,80736,112.086,113.383,-0.393689
7019,81408.8,111.822,113.137,-0.379477
7077,82081.6,111.732,112.907,-0.393193
7135,82754.4,111.525,112.695,-0.399277
7193,83427.2,111.398,112.487,-0.398649
7251,84100,111.286,112.301,-0.403463
7309,84772.8,111.177,112.126,-0.409789
7367,85445.6,111.066,111.966,-0.411796
7425,86118.4,110.959,111.813,-0.414397
7483,86791.2,110.889,111.675,-0.420344
7541,87464,110.818,111.548,-0.477625
7599,88136.8,110.743,111.431,-0.492807
7657,88809.6,110.678,111.324,-0.476862
7715,89482.4,110.614,111.224,-0.479984
7773,90155.2,110.551,111.132,-0.47105
7831,90828,110.499,111.045,-0.471348
7889,91500.8,110.454,110.966,-0.474398
7947,92173.6,110.399,110.893,-0.479906
8005,92846.4,110.344,110.822,-0.47799
8063,93519.2,110.293,110.756,-0.481624
8121,94192,110.245,110.692,-0.496084
8179,94864.8,111.881,110.689,-0.767511
8237,95537.6,115.169,111.226,-1.336661
8295,96210.4,117.972,112.223,-1.710244
8353,96883.2,120.783,113.569,-1.981319
8411,97556,123.593,115.1966,-2.214564
8469,98228.8,126.403,117.052,-2.403558
8527,98901.6,129.213,119.091,-2.550871
8585,99574.4,132.013,121.275,-2.653558
8643,100247.2,134.82,123.5745,-2.720941
8701,100920,137.627,125.968,-2.795087
8759,101592.8,140.432,128.439,-2.835474
8817,102265.6,143.234,130.97,-2.843337
8875,102938.4,146.038,133.549,-2.882063
8933,103611.2,148.843,136.171,-2.868742
8991,104284,151.648,138.825,-2.889425
9049,104956.8,154.451,141.506,-2.869752
9107,105629.6,157.255,144.21,-2.853665
9165,106302.4,160.059,146.935,-2.841554
9223,106975.2,162.864,149.678,-2.815576
9281,107648,165.672,152.435,-2.795025
9339,108320.8,168.469,155.205,-2.759296
9397,108993.6,171.274,157.984,-2.693801
9455,109666.4,174.076,160.773,-2.653946
9513,110339.2,176.88,163.568,-2.584876
9571,111012,179.689,166.369,-2.508846
9629,111684.8,182.488,169.176,-2.467768
9687,112357.6,185.291,171.987,-2.400846
9745,113030.4,188.098,174.8,-2.352153
9803,113703.2,190.899,177.617,-2.242212
9861,114376,193.701,180.436,-2.136122
9919,115048.8,196.506,183.255,-2.082218
9977,115721.6,199.311,186.077,-1.969866
10035,116394.4,202.114,188.898,-1.991296
10093,117067.2,204.918,191.722,-1.82115
10151,117740,207.722,194.547,-1.756541
10209,118412.8,210.524,197.375,-1.637598
10267,119085.6,213.327,200.208,-1.66751
10325,119758.4,216.131,203.045,-1.628786
10383,120431.2,218.931,205.885,-1.297853
10441,121104,221.736,208.726,-1.482454
10499,121776.8,224.54,211.5702,-1.402405
10557,122449.6,227.345,214.418,-1.451571
10615,123122.4,230.148,217.267,-1.292057
10673,123795.2,232.95,220.118,-1.058308
10731,124468,235.752,222.968,-0.934189
10789,125140.8,238.553,225.819,-0.849398
10847,125813.6,241.361,228.671,-0.949217
10905,126486.4,244.165,231.523,-0.899165
10963,127159.2,246.969,234.375,-0.740343
11021,127832,249.774,237.231,-0.909446
11079,128504.8,252.571,240.088,-0.668721
11137,129177.6,255.379,242.94,-0.540043
11195,129850.4,258.179,245.794,-0.237827
11253,130523.2,260.981,248.648,-0.237359
11311,131196,263.786,251.498,0.008944
11369,131868.8,266.593,254.351,-0.248514
11427,132541.6,269.399,257.207,0.150083
11485,133214.4,272.199,260.065,0.342741
11543,133887.2,275.002,262.919,0.894171
11601,134560,277.801,265.773,0.723532
11659,135232.8,280.6075,268.624,0.623888
11717,135905.6,283.411,271.476,0.775276
11775,136578.4,286.215,274.328,0.751677
11833,137251.2,289.02,277.18,0.973637
11891,137924,291.819,280.033,1.016551
11949,138596.8,294.628,282.884,1.420803
12007,139269.6,297.43,285.7339,1.211906
12065,139942.4,299.292,288.547,1.454727
12123,140615.2,299.19,290.846,1.453835
12181,141288,299.18,292.59,1.971317
12239,141960.8,299.172,293.913,1.822954
12297,142633.6,299.169,294.915,2.225509
12355,143306.4,299.166,295.689,2.993968
12413,143979.2,299.163,296.28,3.294271
12471,144652,299.16,296.733,2.569262
12529,145324.8,299.156,297.075,2.543647
12587,145997.6,299.156,297.334,3.286173
12645,146670.4,299.153,297.533,2.83064
12703,147343.2,299.154,297.682,3.321786
12761,148016,299.153,297.796,3.680218
12819,148688.8,299.153,297.882,3.357012
12877,149361.6,299.151,297.948,2.212058
12935,150034.4,299.152,297.997,2.637795
12993,150707.2,299.15,298.035,2.975989
13051,151380,299.152,298.064,3.080258
13109,152052.8,299.149,298.085,3.303309
13167,152725.6,299.151,298.101,3.166129
13225,153398.4,299.148,298.114,3.24967
13283,154071.2,299.149,298.123,2.7667
13341,154744,299.152,298.13,2.832412
13399,155416.8,299.15,298.134,3.426371
13457,156089.6,299.151,298.139,3.259542
13515,156762.4,299.149,298.142,2.672773
13573,157435.2,299.151,298.144,3.705733
13631,158108,299.151,298.147,2.385131
13689,158780.8,299.151,298.147,3.273589
13747,159453.6,299.15,298.149,3.519509
13805,160126.4,299.15,298.151,3.444679
13863,160799.2,299.151,298.151,3.151214
13921,161472,299.151,298.152,3.058884
13979,162144.8,299.151,298.151,3.961242
14037,162817.6,299.148,298.152,2.907001
14095,163490.4,299.151,298.153,3.261902
14153,164163.2,299.147,298.153,3.413266
14211,164836,299.148,298.152,3.587631
14269,165508.8,299.147,298.15,3.602912
14327,166181.6,299.15,298.149,2.809362
14385,166854.4,299.15,298.148,3.941006
14443,167527.2,299.152,298.149,4.183153
14501,168200,299.15,298.15,3.173184
14559,168872.8,299.154,298.153,3.312184
14617,169545.6,299.154,298.157,2.872322
14675,170218.4,299.151,298.16,2.906121
14733,170891.2,299.151,298.163,3.799709
14791,171564,299.15,298.165,3.422836
14849,172236.8,299.148,298.166,3.779274
14897,172793.6,299.152,298.167,2.850842