File: i_data/0.25Kmin/H2O-NH3_2wt%.csv
NH3-H2O 2wt%  Specific Heat - Large HF,,,,
Creation Date : 6/23/2022 3:57:25 PM,,,,
User : admin,,,,
,,,,
HeatFlow :,,,,
 Initial Mass : 4874 mg,,,,
 Molar Mass : 17 g/mol,,,,
,,,,
Index,Time(s),Furnace Temperature(K),Sample Temperature(K),HeatFlow(mW)
1,0,297.956,298.01,31.4431
58,661.2,297.604,297.973,4.172717
115,1322.4,296.487,297.7689,4.465582
172,1983.6,294.474,297.233,12.5893
229,2644.8,291.2,296.191,26.4534
286,3306,286.669,294.435,46.86306
343,3967.2,281.808,291.975,69.7441
400,4628.4,277.017,288.946,89.6861
457,5289.6,272.42,285.519,104.71
514,5950.8,268.013,281.854,114.466
571,6612,263.8,278.058,120.369
628,7273.2,259.768,274.21,123.658
685,7934.4,255.91,270.365,124.679
742,8595.6,252.201,266.564,124.6263
799,9256.8,248.608,262.824,123.361
856,9918,245.136,259.162,1320.29
913,10579.2,241.809,255.719,1111.78
970,11240.4,238.577,252.235,248.812
1027,11901.6,235.408,248.802,105.977
1084,12562.8,232.316,245.454,79.7692
1141,13224,229.304,242.191,69.992
1198,13885.2,226.36,239.012,63.9749
1255,14546.4,223.487,235.911,59.0131
1312,15207.6,220.687,232.886,55.366
1369,15868.8,217.954,229.935,52.4779
1426,16530,215.287,227.055,49.4887
1483,17191.2,212.684,224.244,46.6879
1540,17852.4,210.136,221.499,44.5221
1597,18513.6,207.646,218.817,42.365
1654,19174.8,205.232,216.196,40.0743
1711,19836,202.893,213.644,38.7878
1768,20497.2,200.607,211.152,37.1769
1825,21158.4,198.379,208.722,35.256
1882,21819.6,196.184,206.349,33.7563
1939,22480.8,194.055,204.032,32.3197
1996,23142,191.9812,201.769,31.4447
2053,23803.2,189.951,199.559,30.3455
2110,24464.4,187.976,197.402,28.6827
2167,25125.6,186.036,195.294,27.7378
2224,25786.8,184.131,193.234,26.7464
2281,26448,182.251,191.215,26.16413
2338,27109.2,180.419,189.2358,24.9307
2395,27770.4,178.678,187.303,23.7909
2452,28431.6,176.988,185.422,23.5174
2509,29092.8,175.338,183.591,22.2368
2566,29754,173.692,181.8,21.3849
2623,30415.2,172.085,180.049,20.6283
2680,31076.4,170.497,178.334,20.5541
2737,31737.6,168.907,176.652,20.203
2794,32398.8,167.244,174.982,19.5626
2851,33060,165.596,173.32,19.0059
2908,33721.2,164.093,171.679,19.2313
2965,34382.4,162.659,170.078,17.7921
3022,35043.6,161.279,168.52,17.2583
3079,35704.8,159.951,167.008,17.0739
3136,36366,158.642,165.535,16.5528
3193,37027.2,157.377,164.103,16.0134
3250,37688.4,156.123,162.707,14.9166
3307,38349.6,154.863,161.341,14.7298
3364,39010.8,153.667,160.005,14.1773
3421,39672,152.513,158.702,13.5539
3478,40333.2,151.392,157.434,13.1036
3535,40994.4,150.278,156.198,13.3961
3592,41655.6,149.152,154.986,12.3501
3649,42316.8,148.069,153.796,12.2157
3706,42978,147.036,152.633,11.7396
3763,43639.2,146.03,151.5,11.7785
3820,44300.4,145.053,150.396,11.0182
3877,44961.6,144.085,149.318,10.5367
3934,45622.8,143.067,148.258,10.6229
3991,46284,142.102,147.21,10.4593
4048,46945.2,141.179,146.185,10.1748
4105,47606.4,140.167,145.173,9.738907
4162,48267.6,139.112,144.156,9.818039
4219,48928.8,138.157,143.141,9.851472
4276,49590,137.339,142.153,9.199067
4333,50251.2,136.559,141.202,9.158622
4390,50912.4,135.751,140.283,8.425847
4447,51573.6,134.972,139.387,8.15044
4504,52234.8,134.168,138.511,8.016524
4561,52896,133.41,137.654,7.816179
4618,53557.2,132.703,136.822,7.327368
4675,54218.4,131.942,136.011,7.057759
4732,54879.6,131.05,135.194,7.178329
4789,55540.8,130.132,134.361,7.242194
4846,56202,129.301,133.519,7.509111
4903,56863.2,128.636,132.694,7.21131
4960,57524.4,128.057,131.914,6.851076
5017,58185.6,127.383,131.159,6.509346
5074,58846.8,126.725,130.422,6.215844
5131,59508,126.152,129.706,5.982883
5188,60169.2,125.576,129.02,5.749795
5245,60830.4,124.868,128.343,5.642207
5302,61491.6,124.133,127.656,5.599444
5359,62152.8,123.415,126.961,5.750033
5416,62814,122.731,126.265,5.633953
5473,63475.2,122.168,125.58,5.484086
5530,64136.4,121.677,124.932,5.228042
5587,64797.6,121.115,124.302,5.006742
5644,65458.8,120.591,123.69,4.77019
5701,66120,120.044,123.089,4.712216
5758,66781.2,119.533,122.506,4.556
5815,67442.4,119.071,121.937,4.421188
5872,68103.6,118.758,121.403,3.998912
5929,68764.8,118.545,120.922,3.592485
5986,69426,118.341,120.492,3.210835
6043,70087.2,118.12,120.101,2.941471
6100,70748.4,117.914,119.745,2.675385
6157,71409.6,117.68,119.414,2.458632
6214,72070.8,117.389,119.095,2.356663
6271,72732,117.083,118.781,2.314472
6328,73393.2,116.822,118.47,2.257111
6385,74054.4,116.48,118.166,2.238485
6442,74715.6,116.084,117.843,2.350175
6499,75376.8,115.838,117.523,2.322771
6556,76038,115.532,117.212,2.243688
6613,76699.2,115.309,116.908,2.176918
6670,77360.4,115.059,116.622,2.033054
6727,78021.6,114.7293,116.329,2.048704
6784,78682.8,114.567,116.047,2.021077
6841,79344,114.334,115.783,1.818772
6898,80005.2,114.13,115.524,1.772679
6955,80666.4,113.979,115.282,1.611793
7012,81327.6,113.798,115.053,1.474849
7069,81988.8,113.654,114.837,1.347254
7126,82650,113.513,114.634,1.220683
7183,83311.2,113.38,114.444,1.121675
7240,83972.4,113.259,114.265,1.018099
7297,84633.6,113.146,114.097,0.914499
7354,85294.8,113.04,113.941,0.809986
7411,85956,112.916,113.793,0.740614
7468,86617.2,112.795,113.648,0.705619
7525,87278.4,112.691,113.511,0.638978
7582,87939.6,112.588,113.378,0.592225
7639,88600.8,112.504,113.253,0.51254
7696,89262,112.414,113.135,0.458236
7753,89923.2,112.325,113.023,0.402912
7810,90584.4,112.24,112.914,0.378554
7867,91245.6,112.16,112.811,0.333421
7924,91906.8,112.0819,112.713,0.292787
7981,92568,112.001,112.617,0.253007
8038,93229.2,111.915,112.524,0.235156
8095,93890.4,111.826,112.432,0.233172
8152,94551.6,111.736,112.341,0.226597
8209,95212.8,113.31,112.303,-0.35054
8266,95874,116.575,112.789,-4.546392
8323,96535.2,119.325,113.722,-8.300366
8380,97196.4,122.087,114.996,-11.2785
8437,97857.6,124.853,116.547,-13.8041
8494,98518.8,127.611,118.327,-16.0343
8551,99180,130.37,120.287,-18.1428
8608,99841.2,133.128,122.395,-20.2954
8665,100502.4,135.888,124.623,-21.4325
8722,101163.6,138.64,126.947,-22.32386
8779,101824.8,141.399,129.349,-23.254
8836,102486,144.153,131.816,-24.1312
8893,103147.2,146.909,134.336,-24.9223
8950,103808.4,149.667,136.9,-25.6552
9007,104469.6,152.421,139.499,-26.305
9064,105130.8,155.175,142.127,-26.9036
9121,105792,157.935,144.779,-27.4802
9178,106453.2,160.681,147.453,-27.9751
9235,107114.4,163.445,150.14,-28.1689
9292,107775.6,166.199,152.845,-27.5223
9349,108436.8,168.948,155.557,-24.4606
9406,109098,171.715,158.28,-18.5737
9463,109759.2,174.46,161.011,-13.8472
9520,110420.4,177.223,163.748,-21.1611
9577,111081.6,179.972,166.491,-28.5209
9634,111742.8,182.729,169.237,-30.2399
9691,112404,185.492,171.989,-60.7371
9748,113065.2,188.238,174.748,-20.8433
9805,113726.4,190.998,177.517,-51.9875
9862,114387.6,193.749,180.289,-41.9385
9919,115048.8,196.506,183.069,-34.8182
9976,115710,199.265,185.855,-34.7799
10033,116371.2,202.015,188.646,-35.2546
10090,117032.4,204.77,191.44,-35.7194
10147,117693.6,207.528,194.235,-36.2021
10204,118354.8,210.28,197.034,-36.7428
10261,119016,213.04,199.835,-37.2339
10318,119677.2,215.788,202.639,-37.7969
10375,120338.4,218.55,205.442,-38.4217
10432,120999.6,221.302,208.249,-39.0127
10489,121660.8,224.056,211.056,-39.5141
10546,122322,226.816,213.864,-40.22574
10603,122983.2,229.566,216.674,-40.9571
10660,123644.4,232.325,219.482,-41.6706
10717,124305.6,235.078,222.291,-42.5188
10774,124966.8,237.83,225.101,-43.3851
10831,125628,240.59,227.908,-44.3384
10888,126289.2,243.343,230.717,-45.3945
10945,126950.4,246.099,233.526,-46.6384
11002,127611.6,248.854,236.336,-47.9783
11059,128272.8,251.609,239.147,-49.8087
11116,128934,254.361,241.956,-51.7697
11173,129595.2,257.116,244.764,-54.0445
11230,130256.4,259.877,247.572,-57.1842
11287,130917.6,262.629,250.381,-61.15
11344,131578.8,265.383,253.187,-66.4476
11401,132240,268.133,255.99,-73.9067
11458,132901.2,270.892,258.79,-84.7767
11515,133562.4,273.643,261.586,-101.473
11572,134223.6,276.4,264.38,-128.852
11629,134884.8,279.157,267.172,-175.617
11686,135546,281.901,269.958,-257.155
11743,136207.2,284.665,272.73,-400.955
11800,136868.4,287.422,275.488,-590.769
11857,137529.6,290.178,278.242,-704.135
11914,138190.8,292.921,281.023,-236.227
11971,138852,295.678,283.833,-107.892
12028,139513.2,298.442,286.64,-91.4455
12085,140174.4,299.216,289.294,-86.8477
12142,140835.6,299.182,291.349,-72.0552
12199,141496.8,299.167,292.9131,-55.7521
12256,142158,299.157,294.104,-42.4711
12313,142819.2,299.16,295.007,-32.06798
12370,143480.4,299.161,295.705,-24.4188
12427,144141.6,299.148,296.238,-18.58214
12484,144802.8,299.1444,296.644,-13.9789
12541,145464,299.159,296.949,-10.3989
12598,146125.2,299.154,297.182,-7.731995
12655,146786.4,299.151,297.362,-5.771299
12712,147447.6,299.149,297.499,-4.217596
12769,148108.8,299.157,297.602,-3.00353
12826,148770,299.15,297.68,-2.088333
12883,149431.2,299.139,297.738,-1.400268
12940,150092.4,299.155,297.781,-0.806202
12997,150753.6,299.158,297.814,-0.444633
13054,151414.8,299.151,297.844,-0.238447
13111,152076,299.158,297.871,-0.143682
13168,152737.2,299.164,297.896,-0.00309
13225,153398.4,299.162,297.922,0.00618
13282,154059.6,299.154,297.948,0.030554
13339,154720.8,299.156,297.97,0.083592
13396,155382,299.156,297.991,0.108993
13453,156043.2,299.157,298.008,0.208199
13510,156704.4,299.16,298.026,0.245441
13567,157365.6,299.157,298.042,0.314778
13624,158026.8,299.157,298.059,0.298296
13681,158688,299.161,298.077,0.321804
13738,159349.2,299.163,298.097,0.203719
13795,160010.4,299.163,298.121,0.147594
13852,160671.6,299.163,298.143,0.231684
13909,161332.8,299.158,298.165,0.275612
13966,161994,299.154,298.184,0.218289
14023,162655.2,299.159,298.201,0.286585
14080,163316.4,299.156,298.219,0.32296
14137,163977.6,299.153,298.234,0.436728
14194,164638.8,299.153,298.245,0.517032
14251,165300,299.153,298.256,0.587382
14308,165961.2,299.153,298.264,0.626158
14365,166622.4,299.151,298.272,0.669224
14422,167283.6,299.149,298.277,0.727735
14479,167944.8,299.15,298.281,0.792938
14536,168606,299.149,298.284,0.794994
14593,169267.2,299.151,298.286,0.857109
14650,169928.4,299.151,298.288,0.826564
14707,170589.6,299.152,298.29,0.845094
14764,171250.8,299.151,298.293,0.867228
14821,171912,299.151,298.295,0.822784
14878,172573.2,299.147,298.295,0.893136
14897,172793.6,299.15,298.295,0.915958