File: i_data/0.10Kmin/old_wt%/H2O-NH3_1.62wt%.csv
H2O-NH3 1.76wt% Specific Heat - Large HF,,,,
Creation Date : 9/1/2022 9:36:12 AM,,,,
User : admin,,,,
,,,,
HeatFlow :,,,,
 Initial Mass : 4887.3 mg,,,,
 Molar Mass : 17 g/mol,,,,
,,,,
Index,Time(s),Furnace Temperature(K),Sample Temperature(K),HeatFlow(mW)
1,0,300.039,300.077,88.7945
59,980.2,300.007,300.07,3.874594
117,1960.4,299.342,299.979,1.462328
175,2940.6,295.255,299.183,14.5309
233,3920.8,287.858,296.56,51.8109
291,4901,280.21,292.266,88.6023
349,5881.2,273.127,286.974,111.701
407,6861.4,266.597,281.215,123.028
465,7841.6,260.4,275.313,127.381
523,8821.8,254.541,269.428,128.738
581,9802,249.055,263.679,126.665
639,10782.2,243.8,258.173,1537.23
697,11762.4,238.807,252.881,319.236
755,12742.6,234.078,247.679,94.8248
813,13722.8,229.516,242.69,72.3149
871,14703,225.089,237.901,62.9154
929,15683.2,220.798,233.281,56.468
987,16663.4,216.673,228.823,51.7834
1045,17643.6,212.728,224.534,47.2674
1103,18623.8,208.938,220.405,44.1169
1161,19604,205.302,216.432,41.359
1219,20584.2,201.804,212.613,38.2722
1277,21564.4,198.416,208.928,36.1662
1335,22544.6,195.141,205.374,33.62958
1393,23524.8,191.955,201.937,32.1645
1451,24505,188.921,198.619,30.2499
1509,25485.2,185.944,195.408,27.9423
1567,26465.4,183.073,192.298,26.633
1625,27445.6,180.291,189.285,25.0395
1683,28425.8,177.646,186.375,23.0555
1741,29406,175.106,183.569,22.3107
1799,30386.2,172.665,180.87,21.298
1857,31366.4,170.262,178.26,20.254
1915,32346.6,168.037,175.743,19.0654
1973,33326.8,165.952,173.341,17.8342
2031,34307,163.936,171.046,17.2612
2089,35287.2,161.973,168.843,16.7016
2147,36267.4,160.04,166.72,15.5323
2205,37247.6,158.14,164.66,14.9784
2263,38227.8,156.306,162.659,14.4271
2321,39208,154.517,160.716,13.4429
2379,40188.2,152.749,158.826,13.0403
2437,41168.4,150.831,156.955,12.8683
2495,42148.6,148.992,155.079,13.15599
2553,43128.8,147.148,153.226,12.7221
2611,44109,145.379,151.382,12.4638
2669,45089.2,143.722,149.582,12.1936
2727,46069.4,142.107,147.828,11.754
2785,47049.6,140.595,146.126,11.2561
2843,48029.8,139.111,144.485,10.5814
2901,49010,137.698,142.899,10.3304
2959,49990.2,136.269,141.364,9.814443
3017,50970.4,134.873,139.857,9.787477
3075,51950.6,133.604,138.399,9.225603
3133,52930.8,132.372,136.999,8.617722
3191,53911,131.105,135.646,8.34612
3249,54891.2,129.9186,134.322,8.161554
3307,55871.4,128.64,133.029,7.727407
3365,56851.6,127.37,131.736,7.656852
3423,57831.8,126.288,130.473,7.355772
3481,58812,125.246,129.267,7.032157
3539,59792.2,124.359,128.13,6.425916
3597,60772.4,123.428,127.056,5.935547
3655,61752.6,122.547,126.025,5.645499
3713,62732.8,121.681,125.037,5.360988
3771,63713,120.795,124.072,5.240653
3829,64693.2,119.936,123.135,5.010643
3887,65673.4,119.114,122.226,4.815535
3945,66653.6,118.395,121.356,4.572
4003,67633.8,117.684,120.525,4.309387
4061,68614,116.918,119.719,4.163184
4119,69594.2,116.163,118.927,4.038232
4177,70574.4,115.467,118.144,3.930318
4235,71554.6,114.79,117.387,3.768724
4293,72534.8,114.169,116.665,3.522513
4351,73515,113.55,115.966,3.437713
4409,74495.2,112.932,115.286,3.323833
4467,75475.4,112.366,114.634,3.151458
4525,76455.6,111.824,114.011,2.992352
4583,77435.8,111.319,113.408,2.850936
4641,78416,110.68,112.821,2.797925
4699,79396.2,110.172,112.228,2.763289
4757,80376.4,109.758,111.67,2.554409
4815,81356.6,109.285,111.146,2.383379
4873,82336.8,108.887,110.649,2.20754
4931,83317,108.507,110.178,2.052725
4989,84297.2,108.051,109.721,1.982055
5047,85277.4,107.622,109.262,1.98164
5105,86257.6,107.37,108.842,1.726201
5163,87237.8,107.202,108.474,1.406303
5221,88218,107.102,108.168,1.065832
5279,89198.2,106.917,107.914,0.814819
5337,90178.4,106.685,107.658,0.809121
5395,91158.6,106.535,107.425,0.685294
5453,92138.8,106.3,107.198,0.680448
5511,93119,106.2311,106.997,0.499513
5569,94099.2,106.124,106.819,0.375304
5627,95079.4,106.102,106.678,0.176693
5685,96059.6,106.045,106.56,0.051715
5743,97039.8,106.022,106.464,-0.050157
5801,98020,106.034,106.392,-0.182838
5859,99000.2,106.05,106.342,-0.301223
5917,99980.4,106.069,106.31,-0.413883
5975,100960.6,106.088,106.2909,-0.46321
6033,101940.8,106.093,106.28,-0.490443
6091,102921,106.12,106.275,-0.543889
6149,103901.2,106.071,106.274,-0.551575
6207,104881.4,107.896,106.429,-1.901676
6265,105861.6,109.509,107.01,-3.944158
6323,106841.8,111.168,107.823,-5.206239
6381,107822,112.829,108.832,-6.272442
6439,108802.2,114.496,110.012,-7.220087
6497,109782.4,116.126,111.317,-7.917578
6555,110762.6,117.779,112.724,-8.544743
6613,111742.8,119.402,114.213,-9.054019
6671,112723,121.024,115.752,-9.428721
6729,113703.2,122.657,117.316,-9.723829
6787,114683.4,124.284,118.9,-10.072
6845,115663.6,125.919,120.493,-10.434
6903,116643.8,127.547,122.094,-10.6364
6961,117624,129.179,123.7,-10.5873
7019,118604.2,130.82,125.309,-10.65187
7077,119584.4,132.447,126.9271,-10.7478
7135,120564.6,134.091,128.538,-10.7733
7193,121544.8,135.706,130.153,-10.857
7251,122525,137.346,131.762,-10.9084
7309,123505.2,138.993,133.375,-11.0055
7367,124485.4,140.625,134.991,-11.1053
7425,125465.6,142.256,136.615,-11.2013
7483,126445.8,143.891,138.236,-11.2793
7541,127426,145.513,139.859,-11.3508
7599,128406.2,147.156,141.477,-11.4269
7657,129386.4,148.783,143.103,-11.52143
7715,130366.6,150.425,144.729,-11.5695
7773,131346.8,152.062,146.358,-11.5163
7831,132327,153.688,147.986,-11.2671
7889,133307.2,155.316,149.617,-10.6384
7947,134287.4,156.96,151.247,-9.232813
8005,135267.6,158.596,152.88,-6.966292
8063,136247.8,160.222,154.519,-4.9721
8121,137228,161.854,156.157,-4.816713
8179,138208.2,163.492,157.79,-8.629912
8237,139188.4,165.122,159.426,-11.4388
8295,140168.6,166.766,161.063,-11.9779
8353,141148.8,168.384,162.699,-12.0123
8411,142129,170.024,164.336,-12.0919
8469,143109.2,171.664,165.972,-12.1866
8527,144089.4,173.297,167.612,-12.3068
8585,145069.6,174.928,169.249,-12.5146
8643,146049.8,176.558,170.886,-18.9984
8701,147030,178.193,172.525,-2.285474
8759,148010.2,179.824,174.166,-11.6836
8817,148990.4,181.467,175.808,-14.6301
8875,149970.6,183.098,177.443,-48.4522
8933,150950.8,184.732,179.086,-14.17168
8991,151931,186.365,180.729,-13.6149
9049,152911.2,187.991,182.37,-13.4688
9107,153891.4,189.632,184.013,-13.6963
9165,154871.6,191.271,185.656,-13.7765
9223,155851.8,192.9,187.299,-13.9209
9281,156832,194.527,188.943,-14.0509
9339,157812.2,196.166,190.583,-14.0758
9397,158792.4,197.801,192.225,-14.0808
9455,159772.6,199.436,193.866,-14.0809
9513,160752.8,201.07,195.509,-14.3355
9571,161733,202.703,197.151,-14.2622
9629,162713.2,204.337,198.793,-14.4491
9687,163693.4,205.971,200.435,-14.5977
9745,164673.6,207.601,202.078,-14.6548
9803,165653.8,209.227,203.72,-14.9431
9861,166634,210.87,205.355,-14.9217
9919,167614.2,212.504,206.996,-14.9836
9977,168594.4,214.13,208.636,-15.1435
10035,169574.6,215.767,210.278,-15.1867
10093,170554.8,217.406,211.92,-15.5714
10151,171535,219.036,213.565,-15.6081
10209,172515.2,220.674,215.214,-15.7985
10267,173495.4,222.305,216.863,-15.9215
10325,174475.6,223.942,218.512,-16.0698
10383,175455.8,225.569,220.16,-16.1552
10441,176436,227.202,221.807,-16.0904
10499,177416.2,228.846,223.454,-16.5514
10557,178396.4,230.473,225.101,-16.7801
10615,179376.6,232.106,226.752,-16.8663
10673,180356.8,233.741,228.397,-17.22
10731,181337,235.376,230.042,-17.446
10789,182317.2,237.005,231.687,-17.7348
10847,183297.4,238.642,233.33,-17.9516
10905,184277.6,240.276,234.975,-18.3864
10963,185257.8,241.907,236.621,-18.588
11021,186238,243.542,238.266,-19.1575
11079,187218.2,245.173,239.91,-19.5313
11137,188198.4,246.81,241.552,-19.9692
11195,189178.6,248.443,243.195,-20.7783
11253,190158.8,250.078,244.838,-21.345
11311,191139,251.711,246.482,-22.2613
11369,192119.2,253.343,248.125,-23.2163
11427,193099.4,254.978,249.768,-24.27
11485,194079.6,256.609,251.409,-25.5028
11543,195059.8,258.245,253.051,-27.1025
11601,196040,259.88,254.693,-28.9763
11659,197020.2,261.512,256.334,-31.5898
11717,198000.4,263.146,257.974,-34.82416
11775,198980.6,264.782,259.617,-39.1779
11833,199960.8,266.413,261.26,-44.89746
11891,200941,268.046,262.9,-53.0714
11949,201921.2,269.679,264.537,-64.9112
12007,202901.4,271.313,266.174,-82.5132
12065,203881.6,272.947,267.808,-109.525
12123,204861.8,274.579,269.439,-150.823
12181,205842,276.215,271.065,-215.96
12239,206822.2,277.844,272.682,-305.235
12297,207802.4,279.482,274.293,-385.682
12355,208782.6,281.114,275.914,-228.261
12413,209762.8,282.749,277.579,-44.2438
12471,210743,284.385,279.243,-35.7101
12529,211723.2,286.013,280.898,-35.0195
12587,212703.4,287.651,282.546,-34.85821
12645,213683.6,289.284,284.194,-34.7877
12703,214663.8,290.92,285.841,-34.7456
12761,215644,292.552,287.484,-34.6065
12819,216624.2,294.183,289.126,-34.5595
12877,217604.4,295.817,290.764,-34.4526
12935,218584.6,297.452,292.397,-34.2662
12993,219564.8,299.089,294.02,-34.1024
13051,220545,299.165,295.413,-29.7424
13109,221525.2,299.164,296.359,-20.6278
13167,222505.4,299.161,296.998,-13.7308
13225,223485.6,299.153,297.427,-8.972304
13283,224465.8,299.151,297.712,-5.717283
13341,225446,299.152,297.901,-3.551953
13399,226426.2,299.153,298.029,-2.132242
13457,227406.4,299.152,298.113,-1.164802
13515,228386.6,299.152,298.171,-0.537148
13573,229366.8,299.15,298.209,-0.116521
13631,230347,299.153,298.232,0.196142
13689,231327.2,299.149,298.249,0.343371
13747,232307.4,299.151,298.26,0.467089
13805,233287.6,299.148,298.268,0.538813
13863,234267.8,299.153,298.274,0.590631
13921,235248,299.15,298.28,0.604184
13979,236228.2,299.149,298.282,0.654975
14037,237208.4,299.152,298.283,0.698216
14095,238188.6,299.152,298.285,0.671274
14153,239168.8,299.149,298.288,0.658746
14211,240149,299.147,298.289,0.705762
14269,241129.2,299.152,298.287,0.74849
14327,242109.4,299.151,298.287,0.738194
14385,243089.6,299.145,298.287,0.714515
14443,244069.8,299.153,298.284,0.79242
14501,245050,299.149,298.285,0.697871
14559,246030.2,299.149,298.286,0.712628
14617,247010.4,299.151,298.287,0.710568
14675,247990.6,299.15,298.288,0.681224
14733,248970.8,299.149,298.287,0.768566
14791,249951,299.151,298.287,0.738538
14849,250931.2,299.146,298.286,0.719148
14907,251911.4,299.151,298.287,0.726698
14954,252705.7,299.15,298.288,0.69684