File: i_data/26C/H2O-NH3_3.7778g.csv
H2O-NH3 New Bottle Conc. Specific Heat - Large HF,,,,
Creation Date : 8/25/2022 10:05:32 AM,,,,
User : admin,,,,
,,,,
HeatFlow :,,,,
 Initial Mass : 3777.8 mg,,,,
 Molar Mass : 17 g/mol,,,,
,,,,
Index,Time(s),Furnace Temperature(K),Sample Temperature(K),HeatFlow(mW)
1,0,298.938,298.971,145.31
59,980.2,298.879,298.965,2.65074
117,1960.4,297.676,298.797,0.261893
175,2940.6,292.578,297.636,16.1492
233,3920.8,285.094,294.61,48.1643
291,4901,277.544,290.085,74.80768
349,5881.2,270.538,284.646,91.0495
407,6861.4,264.079,278.826,97.4362
465,7841.6,258.027,272.925,98.3473
523,8821.8,252.271,267.081,96.4325
581,9802,246.828,261.373,93.4252
639,10782.2,241.671,255.859,89.0696
697,11762.4,236.792,250.553,84.6576
755,12742.6,232.151,245.476,79.402
813,13722.8,227.651,240.594,75.2929
871,14703,223.291,235.902,71.3971
929,15683.2,219.108,231.377,67.9872
987,16663.4,215.127,227.027,64.3614
1045,17643.6,211.247,222.839,60.686
1103,18623.8,207.518,218.797,58.061
1161,19604,203.884,214.892,54.2345
1219,20584.2,200.38,211.117,51.7427
1277,21564.4,196.976,207.461,48.4814
1335,22544.6,193.706,203.923,46.1976
1393,23524.8,190.565,200.503,44.1778
1451,24505,187.518,197.207,40.8079
1509,25485.2,184.565,194.01,38.8586
1567,26465.4,181.801,190.93,37.4908
1625,27445.6,179.027,187.957,35.2049
1683,28425.8,176.41,185.08,33.3316
1741,29406,173.844,182.295,32.11154
1799,30386.2,171.334,179.599,30.85601
1857,31366.4,168.913,176.969,31.519
1915,32346.6,166.552,174.425,39.8269
1973,33326.8,164.304,171.96,47.376
2031,34307,162.145,169.583,46.5935
2089,35287.2,159.992,167.27,41.0491
2147,36267.4,157.879,165.011,33.3825
2205,37247.6,155.939,162.832,28.0837
2263,38227.8,153.832,160.701,24.7836
2321,39208,151.24,158.522,24.4213
2379,40188.2,147.492,156.088,26.8028
2437,41168.4,143.677,153.224,30.3281
2495,42148.6,140.874,150.291,30.1027
2553,43128.8,138.28,147.435,28.6394
2611,44109,135.769,144.667,27.4218
2669,45089.2,133.492,142.009,25.46206
2727,46069.4,131.265,139.472,23.8632
2785,47049.6,129.36,137.049,22.3682
2843,48029.8,127.3944,134.787,20.672
2901,49010,125.636,132.619,19.40746
2959,49990.2,123.86,130.55,18.3418
3017,50970.4,122.583,128.64,16.5688
3075,51950.6,121.338,126.904,15.0862
3133,52930.8,120.276,125.332,13.4428
3191,53911,119.124,123.872,12.3788
3249,54891.2,118.131,122.523,11.1111
3307,55871.4,117.376,121.303,9.871087
3365,56851.6,116.624,120.214,8.58493
3423,57831.8,115.892,119.208,7.662712
3481,58812,115.037,118.263,6.925947
3539,59792.2,114.166,117.333,6.579084
3597,60772.4,113.508,116.453,5.917759
3655,61752.6,112.893,115.634,5.249742
3713,62732.8,112.221,114.86,6.766147
3771,63713,111.738,114.142,4.410741
3829,64693.2,111.298,113.496,3.814242
3887,65673.4,110.676,112.878,3.566276
3945,66653.6,110.101,112.256,3.446624
4003,67633.8,109.635,111.674,3.139698
4061,68614,109.174,111.117,2.906507
4119,69594.2,108.675,110.58,2.780423
4177,70574.4,108.181,110.061,2.620983
4235,71554.6,107.768,109.546,2.509267
4293,72534.8,107.435,109.076,2.241517
4351,73515,107.087,108.64,2.016956
4409,74495.2,106.663,108.213,1.947803
4467,75475.4,106.261,107.799,1.861268
4525,76455.6,105.824,107.368,1.929874
4583,77435.8,105.499,106.962,1.766586
4641,78416,105.24,106.588,1.537086
4699,79396.2,104.939,106.229,1.460709
4757,80376.4,104.619,105.897,1.317838
4815,81356.6,104.297,105.55,1.376752
4873,82336.8,104.224,105.254,1.030689
4931,83317,104.027,105.002,0.853717
4989,84297.2,103.852,104.767,0.726128
5047,85277.4,103.649,104.535,0.739464
5105,86257.6,103.56,104.336,0.516167
5163,87237.8,103.496,104.165,0.371145
5221,88218,103.42,104.017,0.23513
5279,89198.2,103.313,103.891,0.141155
5337,90178.4,103.292,103.776,0.042744
5395,91158.6,103.245,103.679,-0.024818
5453,92138.8,103.451,103.638,-0.379243
5511,93119,103.363,103.621,-0.426013
5569,94099.2,103.465,103.605,-0.508734
5627,95079.4,103.567,103.621,-0.65601
5685,96059.6,103.642,103.66,-0.755739
5743,97039.8,103.737,103.709,-0.829224
5801,98020,103.878,103.778,-0.946885
5859,99000.2,104.014,103.863,-1.018953
5917,99980.4,104.159,103.962,-1.10774
5975,100960.6,104.302,104.073,-1.161772
6033,101940.8,104.434,104.192,-1.207185
6091,102921,104.551,104.312,-1.206684
6149,103901.2,106.282,104.573,-2.425555
6207,104881.4,107.92,105.261,-4.548499
6265,105861.6,109.565,106.1957,-5.88563
6323,106841.8,111.202,107.313,-6.903272
6381,107822,112.839,108.563,-7.702774
6439,108802.2,114.474,109.911,-8.364385
6497,109782.4,116.109,111.329,-8.923292
6555,110762.6,117.746,112.8,-9.445683
6613,111742.8,119.378,114.308,-9.969872
6671,112723,121.001,115.843,-10.5946
6729,113703.2,122.653,117.398,-11.5732
6787,114683.4,124.28,118.969,-13.2735
6845,115663.6,125.913,120.554,-16.0873
6903,116643.8,127.543,122.146,-17.4486
6961,117624,129.185,123.743,-15.6837
7019,118604.2,130.814,125.345,-15.3669
7077,119584.4,132.438,126.952,-15.4041
7135,120564.6,134.096,128.557,-15.42616
7193,121544.8,135.699,130.168,-15.4927
7251,122525,137.362,131.774,-15.5467
7309,123505.2,138.984,133.387,-15.624
7367,124485.4,140.608,135.002,-15.7068
7425,125465.6,142.259,136.616,-15.7441
7483,126445.8,143.875,138.238,-15.8175
7541,127426,145.524,139.854,-15.5693
7599,128406.2,147.16,141.475,-13.8976
7657,129386.4,148.789,143.101,-1.707527
7715,130366.6,150.422,144.742,77.1406
7773,131346.8,152.056,146.401,159.285
7831,132327,153.694,148.037,22.9374
7889,133307.2,155.311,149.66,-4.640728
7947,134287.4,156.948,151.278,-9.230742
8005,135267.6,158.592,152.902,-10.09843
8063,136247.8,160.228,154.532,-10.5454
8121,137228,161.856,156.166,-10.8488
8179,138208.2,163.49,157.801,-11.0536
8237,139188.4,165.123,159.437,-11.2367
8295,140168.6,166.76,161.073,-11.4763
8353,141148.8,168.387,162.708,-11.8935
8411,142129,170.029,164.342,-11.183
8469,143109.2,171.662,165.976,-11.59865
8527,144089.4,173.294,167.612,-11.868
8585,145069.6,174.924,169.25,-12.0086
8643,146049.8,176.557,170.889,-12.3902
8701,147030,178.192,172.527,-12.6171
8759,148010.2,179.828,174.164,-13.0835
8817,148990.4,181.46,175.805,-24.189
8875,149970.6,183.091,177.431,-163.78
8933,150950.8,184.729,179.043,-236.601
8991,151931,186.36,180.666,-103.238
9049,152911.2,187.996,182.321,-24.2205
9107,153891.4,189.628,183.974,-22.1623
9165,154871.6,191.265,185.628,-22.4303
9223,155851.8,192.894,187.277,-22.6898
9281,156832,194.528,188.924,-23.0303
9339,157812.2,196.163,190.569,-23.41632
9397,158792.4,197.797,192.216,-23.82411
9455,159772.6,199.437,193.857,-24.1686
9513,160752.8,201.068,195.504,-24.6714
9571,161733,202.692,197.147,-24.928
9629,162713.2,204.341,198.789,-25.5396
9687,163693.4,205.971,200.433,-26.0533
9745,164673.6,207.5996,202.08,-26.7277
9803,165653.8,209.234,203.724,-27.2612
9861,166634,210.871,205.365,-27.8512
9919,167614.2,212.499,207.01,-28.4754
9977,168594.4,214.141,208.652,-27.702
10035,169574.6,215.771,210.295,-22.3897
10093,170554.8,217.401,211.94,-21.907
10151,171535,219.033,213.585,-21.8787
10209,172515.2,220.673,215.228,-21.868
10267,173495.4,222.302,216.874,-22.2701
10325,174475.6,223.936,218.517,-22.3121
10383,175455.8,225.576,220.162,-22.5842
10441,176436,227.203,221.811,-22.6705
10499,177416.2,228.84,223.457,-22.8494
10557,178396.4,230.474,225.102,-22.9263
10615,179376.6,232.11,226.749,-23.106
10673,180356.8,233.74,228.392,-22.961
10731,181337,235.372,230.038,-23.3913
10789,182317.2,237.006,231.683,-23.322
10847,183297.4,238.642,233.329,-23.5615
10905,184277.6,240.274,234.975,-23.5917
10963,185257.8,241.909,236.619,-23.6904
11021,186238,243.544,238.264,-24.0632
11079,187218.2,245.175,239.9103,-24.1066
11137,188198.4,246.809,241.553,-24.0865
11195,189178.6,248.442,243.197,-24.378
11253,190158.8,250.077,244.84,-24.1504
11311,191139,251.711,246.484,-24.6084
11369,192119.2,253.343,248.126,-24.7895
11427,193099.4,254.979,249.769,-24.6693
11485,194079.6,256.611,251.41,-24.962
11543,195059.8,258.244,253.053,-25.1375
11601,196040,259.877,254.696,-25.2168
11659,197020.2,261.511,256.338,-25.4291
11717,198000.4,263.146,257.978,-25.519
11775,198980.6,264.779,259.6207,-25.6851
11833,199960.8,266.411,261.26,-25.8218
11891,200941,268.046,262.9,-25.92
11949,201921.2,269.68,264.541,-26.1566
12007,202901.4,271.309,266.181,-26.3628
12065,203881.6,272.947,267.816,-26.4953
12123,204861.8,274.582,269.453,-26.6859
12181,205842,276.216,271.092,-26.91845
12239,206822.2,277.851,272.735,-27.0964
12297,207802.4,279.484,274.378,-27.2462
12355,208782.6,281.117,276.02,-27.3518
12413,209762.8,282.749,277.663,-27.5053
12471,210743,284.384,279.304,-27.56583
12529,211723.2,286.016,280.944,-27.6327
12587,212703.4,287.645,282.581,-27.664
12645,213683.6,289.287,284.215,-27.7367
12703,214663.8,290.921,285.8557,-27.9621
12761,215644,292.548,287.494,-28.0254
12819,216624.2,294.182,289.13,-28.1335
12877,217604.4,295.819,290.765,-28.1992
12935,218584.6,297.454,292.397,-28.2388
12993,219564.8,299.082,294.019,-28.2014
13051,220545,299.169,295.407,-24.6593
13109,221525.2,299.164,296.35,-17.3228
13167,222505.4,299.152,296.977,-11.6142
13225,223485.6,299.147,297.394,-7.585075
13283,224465.8,299.151,297.669,-4.91484
13341,225446,299.152,297.849,-3.132236
13399,226426.2,299.142,297.965,-1.892585
13457,227406.4,299.142,298.039,-1.054696
13515,228386.6,299.15,298.083,-0.468028
13573,229366.8,299.148,298.105,-0.017677
13631,230347,299.139,298.116,0.232719
13689,231327.2,299.151,298.118,0.4191
13747,232307.4,299.149,298.118,0.504053
13805,233287.6,299.134,298.12,0.522072
13863,234267.8,299.153,298.113,0.650621
13921,235248,299.151,298.114,0.548848
13979,236228.2,299.15,298.109,0.63758
14037,237208.4,299.139,298.102,0.665216
14095,238188.6,299.145,298.091,0.734217
14153,239168.8,299.145,298.078,0.777133
14211,240149,299.15,298.056,0.927672
14269,241129.2,299.148,298.045,0.779046
14327,242109.4,299.149,298.037,0.755882
14385,243089.6,299.154,298.034,0.633164
14443,244069.8,299.151,298.037,0.547688
14501,245050,299.154,298.038,0.592313
14559,246030.2,299.153,298.037,0.609134
14617,247010.4,299.148,298.035,0.607247
14675,247990.6,299.145,298.033,0.620464
14733,248970.8,299.145,298.029,0.630765
14791,249951,299.155,298.025,0.658916
14849,250931.2,299.148,298.021,0.685522
14907,251911.4,299.156,298.019,0.661322
14954,252705.7,299.156,298.025,0.531732