File: i_data/26C/H2O-NH3_4.5202g.csv
H2O-NH3 10wt% Specific Heat - Large HF,,,,
Creation Date : 9/16/2022 10:06:11 AM,,,,
User : admin,,,,
,,,,
HeatFlow :,,,,
 Initial Mass : 4520.2 mg,,,,
 Molar Mass : 17 g/mol,,,,
,,,,
Index,Time(s),Furnace Temperature(K),Sample Temperature(K),HeatFlow(mW)
1,0,298.693,298.557,273.839
59,980.2,298.583,298.597,8.115791
117,1960.4,297.8,298.507,0.182193
175,2940.6,294.181,297.752,11.6173
233,3920.8,287.294,295.3664,42.414
291,4901,279.877,291.345,75.0931
349,5881.2,272.985,286.287,96.8953
407,6861.4,266.6033,280.743,107.431
465,7841.6,260.635,275.043,111.183
523,8821.8,255.004,269.368,111.148
581,9802,249.63,263.806,109.117
639,10782.2,244.525,258.403,105.41
697,11762.4,239.644,253.18,101.493
755,12742.6,234.922,248.142,98.2803
813,13722.8,230.391,243.332,380.049
871,14703,226.055,238.645,148.738
929,15683.2,221.818,234.107,107.858
987,16663.4,217.756,229.723,89.3727
1045,17643.6,213.836,225.492,77.3096
1103,18623.8,210.056,221.408,68.6512
1161,19604,206.434,217.47,60.9836
1219,20584.2,202.944,213.674,54.45447
1277,21564.4,199.582,210.013,49.9614
1335,22544.6,196.357,206.485,45.7211
1393,23524.8,193.251,203.086,42.3552
1451,24505,190.27,199.81,38.5866
1509,25485.2,187.438,196.663,35.88897
1567,26465.4,184.654,193.633,33.5789
1625,27445.6,181.971,190.7,31.6012
1683,28425.8,179.418,187.875,29.6117
1741,29406,176.941,185.153,28.2364
1799,30386.2,174.54,182.523,25.8666
1857,31366.4,172.212,179.981,24.5196
1915,32346.6,169.949,177.519,23.312
1973,33326.8,167.758,175.133,22.6914
2031,34307,165.629,172.819,21.2999
2089,35287.2,163.579,170.576,20.52118
2147,36267.4,161.604,168.406,19.202
2205,37247.6,159.664,166.302,18.3487
2263,38227.8,157.749,164.255,17.4558
2321,39208,155.865,162.252,17.2388
2379,40188.2,154.07,160.302,16.3131
2437,41168.4,152.334,158.408,15.6947
2495,42148.6,150.626,156.566,15.4212
2553,43128.8,148.926,154.765,14.8307
2611,44109,147.31,153.01,14.0718
2669,45089.2,145.732,151.3,13.8903
2727,46069.4,144.233,149.639,13.13424
2785,47049.6,142.798,148.036,12.7021
2843,48029.8,141.416,146.489,11.6255
2901,49010,140.125,145,11.5182
2959,49990.2,138.844,143.568,10.8986
3017,50970.4,137.534,142.174,10.4672
3075,51950.6,136.28,140.813,10.2607
3133,52930.8,134.869,139.465,10.1784
3191,53911,133.508,138.1,10.1452
3249,54891.2,132.206,136.743,9.986181
3307,55871.4,130.973,135.413,9.825905
3365,56851.6,129.77,134.119,9.290292
3423,57831.8,128.654,132.863,8.899868
3481,58812,127.523,131.6341,8.666845
3539,59792.2,126.451,130.452,8.245535
3597,60772.4,125.403,129.292,8.119144
3655,61752.6,124.456,128.177,7.577509
3713,62732.8,123.525,127.114,7.184978
3771,63713,122.626,126.094,6.78504
3829,64693.2,121.76,125.107,6.483885
3887,65673.4,121.049,124.169,6.095434
3945,66653.6,120.284,123.29,5.524344
4003,67633.8,119.456,122.429,5.454144
4061,68614,118.633,121.58,5.277224
4119,69594.2,117.866,120.748,5.088685
4177,70574.4,117.141,119.936,4.995717
4235,71554.6,116.444,119.147,4.715796
4293,72534.8,115.732,118.38,4.491394
4351,73515,115.105,117.645,4.222007
4409,74495.2,114.49,116.94,3.966414
4467,75475.4,113.714,116.234,3.932529
4525,76455.6,113.145,115.538,3.738459
4583,77435.8,112.68,114.886,3.393732
4641,78416,112.183,114.279,3.076024
4699,79396.2,111.765,113.714,2.801465
4757,80376.4,111.568,113.22,2.34481
4815,81356.6,111.281,112.795,2.02728
4873,82336.8,110.835,112.383,1.944298
4931,83317,110.463,111.973,1.883493
4989,84297.2,110.032,111.558,1.862696
5047,85277.4,109.692,111.149,1.813645
5105,86257.6,109.516,110.787,1.492472
5163,87237.8,109.277,110.461,1.318729
5221,88218,109.149,110.178,1.049974
5279,89198.2,108.919,109.918,0.928425
5337,90178.4,108.743,109.678,0.817207
5395,91158.6,108.377,109.431,0.889615
5453,92138.8,108.098,109.156,0.970625
5511,93119,107.957,108.898,0.862426
5569,94099.2,107.846,108.685,0.628223
5627,95079.4,107.749,108.486,0.524404
5685,96059.6,107.685,108.335,0.292894
5743,97039.8,107.572,108.188,0.244032
5801,98020,107.518,108.06,0.147066
5859,99000.2,107.515,107.961,-0.011054
5917,99980.4,107.492,107.883,-0.123878
5975,100960.6,107.365,107.807,-0.1015
6033,101940.8,107.306,107.724,-0.090806
6091,102921,107.242,107.649,-0.134546
6149,103901.2,107.226,107.5819,-0.182443
6207,104881.4,107.395,107.535,-0.303864
6265,105861.6,109.579,107.829,-2.650567
6323,106841.8,111.193,108.51,-4.50931
6381,107822,112.834,109.439,-5.843976
6439,108802.2,114.472,110.551,-6.877987
6497,109782.4,116.105,111.798,-7.667213
6555,110762.6,117.74,113.143,-8.334125
6613,111742.8,119.374,114.559,-8.905099
6671,112723,121.011,116.028,-9.474944
6729,113703.2,122.649,117.536,-10.1534
6787,114683.4,124.277,119.067,-11.1067
6845,115663.6,125.911,120.624,-12.5757
6903,116643.8,127.545,122.192,-13.0042
6961,117624,129.188,123.774,-12.2881
7019,118604.2,130.801,125.368,-12.296
7077,119584.4,132.454,126.958,-12.3576
7135,120564.6,134.08,128.555,-12.456
7193,121544.8,135.716,130.163,-12.6267
7251,122525,137.343,131.77,-12.6781
7309,123505.2,138.994,133.383,-12.8046
7367,124485.4,140.62,134.999,-12.8804
7425,125465.6,142.252,136.62,-12.9795
7483,126445.8,143.876,138.239,-13.0374
7541,127426,145.519,139.859,-13.1202
7599,128406.2,147.15,141.482,-13.2064
7657,129386.4,148.793,143.105,-13.1889
7715,130366.6,150.424,144.733,-12.9437
7773,131346.8,152.051,146.36,-11.665
7831,132327,153.684,147.99,-7.118772
7889,133307.2,155.334,149.623,6.910091
7947,134287.4,156.958,151.266,39.9109
8005,135267.6,158.589,152.912,44.3506
8063,136247.8,160.224,154.55,2.114502
8121,137228,161.852,156.181,-9.792595
8179,138208.2,163.485,157.813,-11.1129
8237,139188.4,165.12,159.443,-11.4446
8295,140168.6,166.754,161.076,-11.5766
8353,141148.8,168.394,162.709,-11.6695
8411,142129,170.024,164.344,-11.8023
8469,143109.2,171.662,165.979,-11.9102
8527,144089.4,173.295,167.617,-12.20913
8585,145069.6,174.929,169.255,-13.0281
8643,146049.8,176.567,170.895,-11.9839
8701,147030,178.199,172.536,-12.127
8759,148010.2,179.829,174.178,-12.9216
8817,148990.4,181.468,175.818,-25.2726
8875,149970.6,183.1,177.444,-177.494
8933,150950.8,184.729,179.075,-34.4851
8991,151931,186.365,180.721,-17.0256
9049,152911.2,187.997,182.367,-16.6689
9107,153891.4,189.632,184.012,-16.8356
9165,154871.6,191.266,185.656,-17.0382
9223,155851.8,192.901,187.301,-17.3128
9281,156832,194.532,188.946,-17.3771
9339,157812.2,196.171,190.588,-17.4385
9397,158792.4,197.802,192.233,-17.8973
9455,159772.6,199.434,193.878,-18.025
9513,160752.8,201.065,195.524,-18.3979
9571,161733,202.697,197.166,-18.3584
9629,162713.2,204.331,198.809,-18.6938
9687,163693.4,205.965,200.449,-19.0319
9745,164673.6,207.601,202.093,-19.1305
9803,165653.8,209.235,203.737,-19.657
9861,166634,210.866,205.38,-19.9613
9919,167614.2,212.5,207.023,-20.195
9977,168594.4,214.134,208.665,-20.5585
10035,169574.6,215.77,210.308,-20.9563
10093,170554.8,217.404,211.955,-21.333
10151,171535,219.04,213.604,-21.88757
10209,172515.2,220.67,215.248,-22.4486
10267,173495.4,222.304,216.89,-22.7099
10325,174475.6,223.935,218.535,-23.5757
10383,175455.8,225.57,220.179,-24.1293
10441,176436,227.208,221.822,-24.6562
10499,177416.2,228.836,223.465,-25.4393
10557,178396.4,230.471,225.107,-26.1224
10615,179376.6,232.112,226.753,-27.1176
10673,180356.8,233.739,228.397,-27.9957
10731,181337,235.378,230.043,-29.0658
10789,182317.2,237.006,231.688,-30.1679
10847,183297.4,238.64,233.335,-31.5402
10905,184277.6,240.271,234.975,-32.6983
10963,185257.8,241.912,236.617,-34.6075
11021,186238,243.543,238.261,-36.5858
11079,187218.2,245.176,239.909,-38.8185
11137,188198.4,246.803,241.549,-40.9292
11195,189178.6,248.445,243.189,-43.7185
11253,190158.8,250.074,244.832,-47.0106
11311,191139,251.711,246.471,-50.7655
11369,192119.2,253.346,248.111,-55.0626
11427,193099.4,254.982,249.755,-60.4729
11485,194079.6,256.611,251.399,-66.6991
11543,195059.8,258.245,253.042,-74.1939
11601,196040,259.876,254.682,-83.2102
11659,197020.2,261.509,256.321,-94.0817
11717,198000.4,263.14,257.957,-106.282
11775,198980.6,264.778,259.592,-115.432
11833,199960.8,266.411,261.228,-90.88007
11891,200941,268.045,262.871,-38.0375
11949,201921.2,269.69,264.519,-31.8528
12007,202901.4,271.308,266.168,-31.6307
12065,203881.6,272.946,267.81,-31.6486
12123,204861.8,274.579,269.455,-31.7092
12181,205842,276.213,271.095,-31.7756
12239,206822.2,277.85,272.734,-31.8626
12297,207802.4,279.482,274.374,-31.9308
12355,208782.6,281.117,276.014,-31.9773
12413,209762.8,282.75,277.656,-31.98498
12471,210743,284.381,279.297,-31.9937
12529,211723.2,286.017,280.936,-31.964
12587,212703.4,287.65,282.575,-31.9519
12645,213683.6,289.284,284.215,-31.9212
12703,214663.8,290.918,285.854,-31.94562
12761,215644,292.553,287.495,-31.954
12819,216624.2,294.186,289.135,-31.9676
12877,217604.4,295.819,290.773,-31.9184
12935,218584.6,297.455,292.409,-31.7926
12993,219564.8,299.084,294.037,-31.7236
13051,220545,299.16,295.421,-27.5116
13109,221525.2,299.161,296.357,-19.0501
13167,222505.4,299.156,296.987,-12.7187
13225,223485.6,299.155,297.409,-8.357972
13283,224465.8,299.152,297.694,-5.475982
13341,225446,299.146,297.879,-3.405256
13399,226426.2,299.151,297.999,-2.014215
13457,227406.4,299.148,298.079,-1.137037
13515,228386.6,299.14,298.126,-0.477963
13573,229366.8,299.141,298.147,0.082548
13631,230347,299.142,298.159,0.321778
13689,231327.2,299.148,298.163,0.458896
13747,232307.4,299.154,298.166,0.484637
13805,233287.6,299.149,298.174,0.402431
13863,234267.8,299.149,298.175,0.558769
13921,235248,299.155,298.171,0.64698
13979,236228.2,299.134,298.167,0.647498
14037,237208.4,299.143,298.153,0.827532
14095,238188.6,299.145,298.144,0.741386
14153,239168.8,299.144,298.127,0.885903
14211,240149,299.139,298.114,0.831682
14269,241129.2,299.135,298.096,0.904294
14327,242109.4,299.134,298.075,0.953399
14385,243089.6,299.147,298.058,0.873605
14443,244069.8,299.153,298.054,0.703349
14501,245050,299.119,298.04,0.781797
14559,246030.2,299.142,298.01,1.116346
14617,247010.4,299.141,297.985,1.081358
14675,247990.6,299.16,297.974,0.84896
14733,248970.8,299.151,297.973,0.714563
14791,249951,299.157,297.971,0.634577
14849,250931.2,299.152,297.968,0.647624
14907,251911.4,299.164,297.971,0.543432
14954,252705.7,299.156,297.978,0.420016