File: archive/0.1Kmin_wrong_wt%/30wt%_peaks.txt
 Index  Time(s)  Furnace Temperature(K)  Sample Temperature(K)  HeatFlow(mW)  Q_Corrected
  6014 101619.7              104.393             104.153     -1.188039    -0.687565
  6893 116474.8              127.266             121.871    -17.579   -16.2292
  7024 118688.7              130.957             125.483    -15.3536   -14.0017
  7473 126276.8              143.602             137.959    -15.8315   -14.5867
  7756 131059.5              151.568             145.915    188.385   189.569
  8409 142095.2              169.973             164.286    -12.1479   -11.2618
  8413 142162.8              170.084             164.399    -11.0416   -10.1498
  8933 150950.8              184.729             179.043   -236.601  -236.071
  9115 154026.6              189.854             184.202    -22.1363   -21.7118
  9924 167698.7              212.638             207.151    -28.5266   -28.5236
 10077 170284.4              216.95             211.488    -21.7274   -21.8062
 10227 172819.4              221.183             215.739    -21.9688   -21.9715
 10417 176030.4              226.537             221.128    -22.1969   -22.504
 10676 180407.5              233.825             228.478    -22.9093   -23.3171
 10855 183432.6              238.867             233.556    -23.6481   -24.2808
 11026 186322.5              243.683             238.407    -24.081   -24.9671
 11254 190175.7              250.105             244.869    -24.1528   -24.4162
 11410 192812.1              254.498             249.287    -24.6657   -24.9514
 12899 217976.2              296.439             291.384    -28.1939   -28.875