File: z_unorganized_archive/i_data/water_tests/archive/2014_run1.csv
H2O_run_03282014,,,,,
Creation Date : 3/2/2023 1:36:16 PM,,,,,
User : admin,,,,,
,,,,,
HeatFlow :,,,,,
 Initial Mass : 6000 mg,,,,,
 Molar Mass : 18 g/mol,,,,,
,,,,,
Baseline :,,,,,
 Initial Mass : 6000 mg,,,,,
 Molar Mass : 18 g/mol,,,,,
,,,,,
Index,Time(s),Furnace Temperature(K),Sample Temperature(K),HeatFlow(mW),Baseline(mW)
1,0,295.224,295.994,188.157,188.157
72,1121.8,288.558,294.651,31.7587,31.7587
143,2243.6,277.385,290.278,98.2186,98.2186
214,3365.4,266.161,283.38,157.55,157.55
285,4487.2,256.089,275.169,190.286,190.286
356,5609,247.555,266.74,200.764,200.764
427,6730.8,239.219,258.469,200.088,200.088
498,7852.6,231.178,250.534,393.864,393.864
569,8974.4,223.789,242.609,94.0703,94.0703
640,10096.2,215.723,234.844,85.4913,85.4913
711,11218,208.149,227.181,82.6313,82.6313
782,12339.8,200.489,219.663,79.4562,79.4562
853,13461.6,193.423,212.264,75.31433,75.31433
924,14583.4,186.616,205.177,70.5723,70.5723
995,15705.2,179.351,198.188,67.8454,67.8454
1066,16827,171.568,191.156,67.316,67.316
1137,17948.8,164.894,184.133,64.1595,64.1595
1208,19070.6,158.624,177.403,60.5325,60.5325
1279,20192.4,152.114,170.834,56.1732,56.1732
1350,21314.2,145.835,164.434,53.4471,53.4471
1421,22436,140.221,158.245,49.7491,49.7491
1492,23557.8,135.038,152.334,45.6683,45.6683
1563,24679.6,130.348,146.757,42.3206,42.3206
1634,25801.4,125.753,141.485,39.4095,39.4095
1705,26923.2,121.966,136.549,35.3314,35.3314
1776,28045,118.764,132.038,31.19031,31.19031
1847,29166.8,115.214,127.874,28.5853,28.5853
1918,30288.6,112.154,123.962,26.1175,26.1175
1989,31410.4,109.205,120.284,23.6712,23.6712
2060,32532.2,106.571,116.865,21.7029,21.7029
2131,33654,104.451,113.735,19.364,19.364
2202,34775.8,102.109,110.861,17.4194,17.4194
2273,35897.6,100.117,108.178,15.8299,15.8299
2344,37019.4,98.1558,105.673,14.62917,14.62917
2415,38141.2,96.5986,103.387,12.8378,12.8378
2486,39263,95.23992,101.319,11.207,11.207
2557,40384.8,93.7987,99.4309,10.151,10.151
2628,41506.6,92.5484,97.6997,8.973586,8.973586
2699,42628.4,91.4856,96.1229,8.005916,8.005916
2770,43750.2,90.3981,94.6834,7.311097,7.311097
2841,44872,89.4639,93.3683,6.406189,6.406189
2912,45993.8,88.5741,92.1579,5.776219,5.776219
2983,47115.6,87.81745,91.0612,5.04126,5.04126
3054,48237.4,87.1951,90.0824,4.256684,4.256684
3125,49359.2,86.5932,89.2036,3.764274,3.764274
3196,50481,86.0196,88.4169,3.248103,3.248103
3267,51602.8,85.508,87.6938,2.917386,2.917386
3338,52724.6,84.986,87.0304,2.577307,2.577307
3409,53846.4,84.5933,86.4275,2.239315,2.239315
3480,54968.2,84.2022,85.8915,1.907755,1.907755
3551,56090,83.8332,85.3944,1.721988,1.721988
3622,57211.8,83.4971,84.943,1.4669,1.4669
3693,58333.6,83.2259,84.53356,1.24352,1.24352
3764,59455.4,82.9688,84.1662,1.039648,1.039648
3835,60577.2,82.7222,83.8367,0.840912,0.840912
3906,61699,82.516,83.5345,0.71024,0.71024
3977,62820.8,82.2955,83.2604,0.577364,0.577364
4048,63942.6,82.1128,83.0081,0.458637,0.458637
4119,65064.4,81.9667,82.77941,0.341161,0.341161
4190,66186.2,81.8578,82.5834,0.199169,0.199169
4261,67308,81.7884,82.4205,0.056153,0.056153
4332,68429.8,81.7176,82.2814,-0.061822,-0.061822
4403,69551.6,81.7235,82.1754,-0.226811,-0.226811
4474,70673.4,81.7346,82.1079,-0.371639,-0.371639
4545,71795.2,81.7531,82.0573,-0.457409,-0.457409
4616,72917,81.8279,82.0359,-0.59549,-0.59549
4687,74038.8,81.9574,82.0539,-0.777704,-0.777704
4758,75160.6,82.0649,82.1023,-0.914366,-0.914366
4829,76282.4,82.1323,82.1543,-0.887086,-0.887086
4900,77404.2,82.3555,82.2405,-1.102525,-1.102525
4971,78526,82.5102,82.3536,-1.198407,-1.198407
5042,79647.8,82.5991,82.473,-1.18849,-1.18849
5113,80769.6,82.9705,82.58988,-1.219179,-1.219179
5184,81891.4,85.2836,83.1241,-3.725771,-3.725771
5255,83013.2,87.1502,84.0838,-5.341264,-5.341264
5326,84135,89.0299,85.3149,-6.4851,-6.4851
5397,85256.8,90.9,86.7302,-7.30725,-7.30725
5468,86378.6,92.7805,88.275,-7.915345,-7.915345
5539,87500.4,94.6489,89.9156,-8.421343,-8.421343
5610,88622.2,96.5143,91.6148,-8.790099,-8.790099
5681,89744,98.3844,93.3509,-9.07996,-9.07996
5752,90865.8,100.251,95.1144,-9.315023,-9.315023
5823,91987.6,102.116,96.893,-9.51548,-9.51548
5894,93109.4,104,98.6841,-9.718242,-9.718242
5965,94231.2,105.846,100.488,-9.894389,-9.894389
6036,95353,107.719,102.292,-10.0776,-10.0776
6107,96474.8,109.598,104.106,-10.2671,-10.2671
6178,97596.6,111.465,105.923,-10.4295,-10.4295
6249,98718.4,113.347,107.743,-10.6178,-10.6178
6320,99840.2,115.195,109.573,-10.79517,-10.79517
6391,100962,117.069,111.399,-10.93479,-10.93479
6462,102083.8,118.942,113.231,-11.08044,-11.08044
6533,103205.6,120.809,115.061,-11.1618,-11.1618
6604,104327.4,122.64,116.888,-11.2528,-11.2528
6675,105449.2,124.549,118.698,-11.30036,-11.30036
6746,106571,126.383,120.512,-11.4053,-11.4053
6817,107692.8,128.278,122.32,-11.5031,-11.5031
6888,108814.6,130.177,124.138,-11.6551,-11.6551
6959,109936.4,131.999,125.959,-11.7673,-11.7673
7030,111058.2,133.882,127.776,-11.8748,-11.8748
7101,112180,135.785,129.592,-11.9879,-11.9879
7172,113301.8,137.658,131.419,-12.1224,-12.1224
7243,114423.6,139.527,133.257,-12.2866,-12.2866
7314,115545.4,141.383,135.0987,-12.4548,-12.4548
7385,116667.2,143.222,136.941,-12.5426,-12.5426
7456,117789,145.128,138.796,-12.7737,-12.7737
7527,118910.8,146.998,140.645,-12.8519,-12.8519
7598,120032.6,148.845,142.505,-13.0358,-13.0358
7669,121154.4,150.732,144.367,-13.2336,-13.2336
7740,122276.2,152.595,146.233,-13.4469,-13.4469
7811,123398,154.492,148.094,-13.6145,-13.6145
7882,124519.8,156.3077,149.957,-13.5409,-13.5409
7953,125641.6,158.21,151.827,-13.6849,-13.6849
8024,126763.4,160.094,153.694,-13.7618,-13.7618
8095,127885.2,161.926,155.563,-13.8696,-13.8696
8166,129007,163.816,157.434,-14.0084,-14.0084
8237,130128.8,165.706,159.301,-14.1122,-14.1122
8308,131250.6,167.569,161.175,-14.23704,-14.23704
8379,132372.4,169.425,163.048,-14.2806,-14.2806
8450,133494.2,171.283,164.913,-14.3865,-14.3865
8521,134616,173.189,166.7909,-14.5829,-14.5829
8592,135737.8,175.014,168.663,-14.6096,-14.6096
8663,136859.6,176.92,170.539,-14.7351,-14.7351
8734,137981.4,178.76,172.416,-14.8132,-14.8132
8805,139103.2,180.67,174.29,-14.8372,-14.8372
8876,140225,182.523,176.169,-14.9912,-14.9912
8947,141346.8,184.359,178.041,-15.1525,-15.1525
9018,142468.6,186.261,179.916,-15.3389,-15.3389
9089,143590.4,188.148,181.79,-15.4541,-15.4541
9160,144712.2,190.012,183.668,-15.64478,-15.64478
9231,145834,191.872,185.552,-15.7025,-15.7025
9302,146955.8,193.728,187.423,-15.7483,-15.7483
9373,148077.6,195.617,189.305,-15.9423,-15.9423
9444,149199.4,197.473,191.178,-15.9884,-15.9884
9515,150321.2,199.345,193.055,-16.1669,-16.1669
9586,151443,201.216,194.935,-16.2885,-16.2885
9657,152564.8,203.097,196.8216,-16.4497,-16.4497
9728,153686.6,204.956,198.714,-16.61845,-16.61845
9799,154808.4,206.823,200.596,-16.6758,-16.6758
9870,155930.2,208.705,202.467,-16.7731,-16.7731
9941,157052,210.572,204.348,-16.9707,-16.9707
10012,158173.8,212.446,206.234,-17.1574,-17.1574
10083,159295.6,214.298,208.127,-17.3486,-17.3486
10154,160417.4,216.183,210.015,-17.4543,-17.4543
10225,161539.2,218.046,211.903,-17.5386,-17.5386
10296,162661,219.924,213.792,-17.701,-17.701
10367,163782.8,221.789,215.699,-18.0331,-18.0331
10438,164904.6,223.645,217.603,-18.0887,-18.0887
10509,166026.4,225.529,219.498,-18.1771,-18.1771
10580,167148.2,227.395,221.383,-18.20446,-18.20446
10651,168270,229.271,223.269,-18.3469,-18.3469
10722,169391.8,231.125,225.17,-18.6723,-18.6723
10793,170513.6,233.003,227.057,-18.6547,-18.6547
10864,171635.4,234.865,228.935,-18.7179,-18.7179
10935,172757.2,236.732,230.808,-18.8011,-18.8011
11006,173879,238.613,232.685,-18.9804,-18.9804
11077,175000.8,240.473,234.569,-19.212,-19.212
11148,176122.6,242.359,236.44,-19.2958,-19.2958
11219,177244.4,244.244,238.327,-19.5647,-19.5647
11290,178366.2,246.092,240.221,-19.7397,-19.7397
11361,179488,247.95,242.125,-20.0834,-20.0834
11432,180609.8,249.845,244.034,-20.2574,-20.2574
11503,181731.6,251.673,245.935,-20.3555,-20.3555
11574,182853.4,253.542,247.815,-20.3052,-20.3052
11645,183975.2,255.421,249.683,-20.2879,-20.2879
11716,185097,257.312,251.566,-20.6819,-20.6819
11787,186218.8,259.186,253.458,-20.9172,-20.9172
11858,187340.6,261.049,255.348,-21.0542,-21.0542
11929,188462.4,262.899,257.219,-21.0433,-21.0433
12000,189584.2,264.777,259.069,-20.9831,-20.9831
12071,190706,266.648,260.918,-21.1914,-21.1914
12142,191827.8,268.514,262.767,-21.3725,-21.3725
12213,192949.6,270.378,264.618,-21.5784,-21.5784
12284,194071.4,272.271,266.479,-21.8816,-21.8816
12355,195193.2,274.118,268.35,-22.1676,-22.1676
12426,196315,275.996,270.21,-22.31644,-22.31644
12497,197436.8,277.872,272.078,-22.7749,-22.7749
12568,198558.6,279.744,273.948,-58.9601,-25.6227
12639,199680.4,281.626,275.788,-418.323,-29.3058
12710,200802.2,283.483,277.59,-685.402,-32.9125
12781,201924,285.367,279.399,-718.163,-36.5342
12852,203045.8,287.219,281.298,-127.082,-40.3337
12923,204167.6,289.084,283.229,-48.4103,-44.1995
12994,205289.4,290.951,285.147,-45.2352,-45.2352
13065,206411.2,292.805,287.038,-44.4925,-44.4925
13136,207533,293.167,288.686,-38.7906,-38.7906
13207,208654.8,293.151,289.754,-25.885,-25.885
13278,209776.6,293.166,290.431,-16.6112,-16.6112
13349,210898.4,293.161,290.868,-10.7624,-10.7624
13420,212020.2,293.153,291.147,-6.968993,-6.968993
13491,213142,293.138,291.332,-4.802339,-4.802339
13562,214263.8,293.165,291.445,-3.10106,-3.10106
13633,215385.6,293.159,291.519,-2.068938,-2.068938
13704,216507.4,293.155,291.569,-1.471367,-1.471367
13775,217629.2,293.154,291.6,-1.06997,-1.06997
13846,218751,293.157,291.624,-0.890957,-0.890957
13917,219872.8,293.159,291.637,-0.61314,-0.61314
13988,220994.6,293.142,291.646,-0.574262,-0.574262
14059,222116.4,293.162,291.645,-0.380769,-0.380769
14130,223238.2,293.152,291.646,-0.318747,-0.318747
14201,224360,293.14,291.652,-0.468529,-0.468529
14272,225481.8,293.146,291.646,-0.224246,-0.224246
14343,226603.6,293.145,291.646,-0.33706,-0.33706
14414,227725.4,293.156,291.652,-0.478549,-0.478549
14485,228847.2,293.158,291.65,-0.356062,-0.356062
14556,229969,293.157,291.651,-0.333775,-0.333775
14627,231090.8,293.149,291.648,-0.264153,-0.264153
14698,232212.6,293.148,291.646,-0.329803,-0.329803
14769,233334.4,293.165,291.646,-0.33706,-0.33706
14840,234456.2,293.16,291.653,-0.514655,-0.514655
14911,235578,293.153,291.657,-0.358132,-0.358132
14975,236589.2,293.145,291.656,-0.34794,-0.34794