File: z_unorganized_archive/i_data/water_tests/archive/2015_blank.csv
Blank_run_20150414,,,,
Creation Date : 3/2/2023 1:23:45 PM,,,,
User : admin,,,,
,,,,
HeatFlow :,,,,
 Initial Mass : 0 mg,,,,
 Molar Mass : N/A,,,,
,,,,
Index,Time(s),Furnace Temperature(K),Sample Temperature(K),HeatFlow(mW)
1,0,298.116,298.094,0.112649
59,916.4,298.041,298.1,-0.053598
117,1832.8,296.749,297.959,-0.075411
175,2749.2,291.426,296.806,-0.355758
233,3665.6,283.444,293.851,-0.302162
291,4582,274.46,289.137,-0.093315
349,5498.4,265.503,283.083,0.1162
407,6414.8,257.297,276.333,0.114444
465,7331.2,249.293,269.246,0.394583
523,8247.6,241.148,262.005,1.501896
581,9164,230.952,254.256,1.757325
639,10080.4,220.998,245.928,0.041975
697,10996.8,211.9709,237.43,-0.150454
755,11913.2,204.136,229.115,-0.338159
813,12829.6,197.503,221.241,0.135274
871,13746,191.609,213.94,-0.10834
929,14662.4,185.91,207.159,0.803475
987,15578.8,180.751,200.804,0.575938
1045,16495.2,176.493,194.965,1.185383
1103,17411.6,172.555,189.656,1.330941
1161,18328,169.011,184.792,1.116013
1219,19244.4,165.748,180.353,1.885364
1277,20160.8,162.605,176.269,1.377353
1335,21077.2,159.721,172.473,1.780674
1393,21993.6,156.62,168.928,1.537585
1451,22910,153.472,165.47,1.609469
1509,23826.4,150.362,162.134,2.160593
1567,24742.8,147.715,158.919,2.281821
1625,25659.2,144.916,155.866,1.858287
1683,26575.6,142.276,152.878,1.586586
1741,27492,139.981,150.038,1.996455
1799,28408.4,137.783,147.367,1.783437
1857,29324.8,135.529,144.81,1.572728
1915,30241.2,133.317,142.347,1.577291
1973,31157.6,130.79,139.89,1.744034
2031,32074,128.31,137.45,1.924053
2089,32990.4,126.023,135.027,1.431758
2147,33906.8,123.59,132.612,1.681335
2205,34823.2,121.46,130.255,1.901154
2263,35739.6,119.494,127.957,1.722653
2321,36656,117.418,125.738,1.617273
2379,37572.4,115.459,123.581,1.798193
2437,38488.8,113.477,121.453,1.426098
2495,39405.2,111.551,119.381,1.611054
2553,40321.6,109.775,117.358,1.545339
2611,41238,107.525,115.354,1.578343
2669,42154.4,105.402,113.287,1.725225
2727,43070.8,103.722,111.271,1.788023
2785,43987.2,102.224,109.356,1.458737
2843,44903.6,100.771,107.531,1.297334
2901,45820,99.4723,105.82,1.33905
2959,46736.4,98.2879,104.218,1.157513
3017,47652.8,97.0871,102.698,1.272558
3075,48569.2,95.9213,101.271,1.064584
3133,49485.6,94.8817,99.9073,1.02093
3191,50402,93.7786,98.6136,0.921738
3249,51318.4,92.8968,97.3923,0.812367
3307,52234.8,91.99552,96.2418,0.823377
3365,53151.2,91.1912,95.1696,0.776814
3423,54067.6,90.4453,94.1592,0.622603
3481,54984,89.7325,93.2179,0.5803
3539,55900.4,89.1397,92.343,0.489582
3597,56816.8,88.5609,91.5373,0.441335
3655,57733.2,87.9278,90.7853,0.414702
3713,58649.6,87.3282,90.0574,0.397532
3771,59566,86.8878,89.381,0.386076
3829,60482.4,86.3875,88.7588,0.325924
3887,61398.8,85.93894,88.1661,0.314194
3945,62315.2,85.5574,87.6203,0.310384
4003,63231.6,85.2228,87.11878,0.295786
4061,64148,84.887,86.6579,0.345466
4119,65064.4,84.5927,86.236,0.317981
4177,65980.8,84.3137,85.844,0.293882
4235,66897.2,84.08335,85.4876,0.251579
4293,67813.6,83.7724,85.1536,0.248665
4351,68730,83.5299,84.8302,0.246843
4409,69646.4,83.2985,84.5317,0.252732
4467,70562.8,83.1024,84.2504,0.243253
4525,71479.2,82.9035,83.9934,0.228542
4583,72395.6,82.7533,83.7546,0.222176
4641,73312,82.622,83.5423,0.211389
4699,74228.4,82.4283,83.343,0.20962
4757,75144.8,82.2873,83.1491,0.20712
4815,76061.2,82.1116,82.9674,0.211037
4873,76977.6,81.9554,82.7857,0.204167
4931,77894,81.8464,82.6182,0.197743
4989,78810.4,81.7643,82.4688,0.197534
5047,79726.8,81.6596,82.3335,0.187288
5105,80643.2,83.1496,82.3344,0.040434
5163,81559.6,84.713,82.7744,-0.12535
5221,82476,86.2468,83.4891,-0.242321
5279,83392.4,87.78266,84.407,-0.32967
5337,84308.8,89.3065,85.4756,-0.37676
5395,85225.2,90.8462,86.65003,-0.423942
5453,86141.6,92.3698,87.9031,-0.468865
5511,87058,93.8912,89.2133,-0.495359
5569,87974.4,95.4299,90.5641,-0.519541
5627,88890.8,96.9581,91.947,-0.533414
5685,89807.2,98.4708,93.3497,-0.549793
5743,90723.6,100.02,94.7734,-0.559625
5801,91640,101.53,96.2086,-0.56337
5859,92556.4,103.067,97.65383,-0.579305
5917,93472.8,104.59,99.1066,-0.58688
5975,94389.2,106.127,100.568,-0.58717
6033,95305.6,107.641,102.033,-0.597877
6091,96222,109.183,103.501,-0.593133
6149,97138.4,110.699,104.979,-0.598463
6207,98054.8,112.242,106.457,-0.600463
6265,98971.2,113.744,107.938,-0.611175
6323,99887.6,115.307,109.425,-0.598047
6381,100804,116.816,110.913,-0.611652
6439,101720.4,118.348,112.41,-0.614455
6497,102636.8,119.878,113.903,-0.612979
6555,103553.2,121.395,115.407,-0.622094
6613,104469.6,122.937,116.905,-0.610898
6671,105386,124.431,118.409,-0.620358
6729,106302.4,125.998,119.912,-0.610525
6787,107218.8,127.512,121.4271,-0.617179
6845,108135.2,129.05,122.944,-0.619865
6903,109051.6,130.548,124.463,-0.619584
6961,109968,132.109,125.981,-0.614706
7019,110884.4,133.63,127.505,-0.611067
7077,111800.8,135.15,129.03,-0.610265
7135,112717.2,136.668,130.56,-0.613383
7193,113633.6,138.202,132.09,-0.610094
7251,114550,139.717,133.616,-0.608648
7309,115466.4,141.231,135.132,-0.599626
7367,116382.8,142.783,136.652,-0.585464
7425,117299.2,144.316,138.172,-0.579561
7483,118215.6,145.829,139.68,-0.574318
7541,119132,147.36,141.2,-0.566253
7599,120048.4,148.86,142.712,-0.561547
7657,120964.8,150.421,144.224,-0.545288
7715,121881.2,151.932,145.746,-0.534023
7773,122797.6,153.485,147.26,-0.507788
7831,123714,154.996,148.78,-0.486862
7889,124630.4,156.503,150.299,-0.463713
7947,125546.8,158.068,151.819,-0.433473
8005,126463.2,159.555,153.342,-0.422614
8063,127379.6,161.112,154.858,-0.37676
8121,128296,162.639,156.372,-0.38163
8179,129212.4,164.153,157.888,-0.350699
8237,130128.8,165.662,159.404,-0.298773
8295,131045.2,167.222,160.919,-0.26125
8353,131961.6,168.745,162.436,-0.236823
8411,132878,170.267,163.956,-0.201201
8469,133794.4,171.778,165.477,-0.152755
8527,134710.8,173.338,166.999,-0.125071
8585,135627.2,174.851,168.522,-0.064196
8643,136543.6,176.364,170.049,-0.075885
8701,137460,177.922,171.575,0.009719
8759,138376.4,179.432,173.099,0.045869
8817,139292.8,180.952,174.628,0.096704
8875,140209.2,182.507,176.159,0.140944
8933,141125.6,184.016,177.686,0.170498
8991,142042,185.544,179.219,0.247434
9049,142958.4,187.069,180.752,0.232306
9107,143874.8,188.608,182.281,0.202358
9165,144791.2,190.118,183.812,0.203562
9223,145707.6,191.658,185.347,0.343554
9281,146624,193.201,186.881,0.270635
9339,147540.4,194.715,188.421,0.353607
9397,148456.8,196.229,189.958,0.376442
9455,149373.2,197.775,191.492,0.355721
9513,150289.6,199.302,193.025,0.433772
9571,151206,200.834,194.565,0.390671
9629,152122.4,202.357,196.105,0.366084
9687,153038.8,203.866,197.639,0.342045
9745,153955.2,205.392,199.174,0.323691
9803,154871.6,206.932,200.708,0.359582
9861,155788,208.466,202.24,0.355998
9919,156704.4,209.983,203.771,0.361557
9977,157620.8,211.491,205.302,0.37475
10035,158537.2,213.032,206.831,0.35794
10093,159453.6,214.575,208.359,0.345197
10151,160370,216.101,209.889,0.388891
10209,161286.4,217.615,211.417,0.422916
10267,162202.8,219.145,212.951,0.429651
10325,163119.2,220.688,214.484,0.396269
10383,164035.6,222.206,216.013,0.359815
10441,164952,223.738,217.552,0.398316
10499,165868.4,225.264,219.083,0.375733
10557,166784.8,226.78,220.617,0.392204
10615,167701.2,228.306,222.15,0.333682
10673,168617.6,229.84,223.685,0.541479
10731,169534,231.374,225.217,0.348377
10789,170450.4,232.894,226.759,0.328503
10847,171366.8,234.419,228.295,0.301941
10905,172283.2,235.935,229.832,0.307109
10963,173199.6,237.485,231.363,0.313264
11021,174116,239.011,232.901,0.318739
11079,175032.4,240.532,234.439,0.270187
11137,175948.8,242.06,235.982,0.346353
11195,176865.2,243.59,237.526,0.250449
11253,177781.6,245.125,239.068,0.281156
11311,178698,246.647,240.619,0.290082
11369,179614.4,248.172,242.171,0.23918
11427,180530.8,249.692,243.716,0.189219
11485,181447.2,251.222,245.255,0.191825
11543,182363.6,252.751,246.791,0.198983
11601,183280,254.265,248.324,0.173336
11659,184196.4,255.813,249.857,0.200892
11717,185112.8,257.333,251.4,0.244274
11775,186029.2,258.872,252.939,0.252417
11833,186945.6,260.395,254.489,0.31306
11891,187862,261.9209,256.04,0.290928
11949,188778.4,263.438,257.589,0.270936
12007,189694.8,264.969,259.134,0.270774
12065,190611.2,266.51,260.682,0.244701
12123,191527.6,268.033,262.232,0.225213
12181,192444,269.564,263.777,0.208581
12239,193360.4,271.069,265.333,0.211157
12297,194276.8,272.602,266.88,0.206579
12355,195193.2,274.157,268.422,0.215584
12413,196109.6,275.674,269.99,0.240563
12471,197026,277.189,271.553,0.221081
12529,197942.4,278.719,273.112,0.226186
12587,198858.8,280.241,274.667,0.232225
12645,199775.2,281.739,276.2042,0.201751
12703,200691.6,283.285,277.717,0.218001
12761,201608,284.833,279.231,0.248823
12819,202524.4,286.362,280.754,0.266152
12877,203440.8,287.883,282.283,0.274337
12935,204357.2,289.412,283.815,0.284242
12993,205273.6,290.934,285.34,0.285615
13051,206190,292.474,286.869,0.309499
13109,207106.4,293.184,288.338,0.396739
13167,208022.8,293.165,289.399,0.361573
13225,208939.2,293.151,290.129,0.351824
13283,209855.6,293.141,290.628,0.332926
13341,210772,293.151,290.974,0.332329
13399,211688.4,293.142,291.213,0.329288
13457,212604.8,293.138,291.373,0.329117
13515,213521.2,293.138,291.478,0.326251
13573,214437.6,293.145,291.549,0.333311
13631,215354,293.142,291.599,0.335303
13689,216270.4,293.144,291.632,0.338262
13747,217186.8,293.157,291.651,0.339206
13805,218103.2,293.153,291.662,0.327022
13863,219019.6,293.144,291.668,0.324244
13921,219936,293.141,291.671,0.320391
13979,220852.4,293.143,291.676,0.330098
14037,221768.8,293.149,291.678,0.330293
14095,222685.2,293.156,291.682,0.33521
14153,223601.6,293.142,291.688,0.335507
14211,224518,293.143,291.69,0.336762
14269,225434.4,293.154,291.687,0.33868
14327,226350.8,293.153,291.684,0.329997
14385,227267.2,293.153,291.684,0.332359
14443,228183.6,293.14,291.684,0.326243
14501,229100,293.135,291.679,0.33164
14559,230016.4,293.15,291.674,0.326661
14617,230932.8,293.161,291.67,0.323651
14675,231849.2,293.153,291.668,0.327556
14733,232765.6,293.149,291.665,0.324977
14791,233682,293.143,291.665,0.326549
14849,234598.4,293.148,291.667,0.330199
14907,235514.8,293.149,291.666,0.331374
14965,236431.2,293.155,291.665,0.336045
14975,236589.2,293.155,291.667,0.335515