File: i_data_processed/27Sep/6.88wt%_climb_proc.txt
 Index  Time(s)  Furnace Temperature(K)  Sample Temperature(K)  HeatFlow(mW)  Q_Corrected       Fc
  6001 101400.0              108.577             108.947     -0.154553     0.329436      NaN
  6063 102447.8              108.542             108.882     -0.208574     0.293540      NaN
  6125 103495.6              108.493             108.824     -0.229375     0.255897      NaN
  6187 104543.4              108.454             108.77     -0.250500     0.250453      NaN
  6249 105591.2              108.574             108.722     -0.301463     0.201872      NaN
  6311 106639.0              110.869             109.048     -2.814612    -2.158737      NaN
  6373 107686.8              112.601             109.802     -4.779429    -3.871676      NaN
  6435 108734.6              114.355             110.83     -6.177664    -5.119650      NaN
  6497 109782.4              116.099             112.054     -7.226854    -6.067458      NaN
  6559 110830.2              117.852             113.417     -8.058483    -6.829007      NaN
  6621 111878.0              119.596             114.883     -8.753762    -7.472772      NaN
  6683 112925.8              121.349             116.423     -9.440169    -8.121314      NaN
  6745 113973.6              123.096             118.016    -10.2257    -8.884356      NaN
  6807 115021.4              124.844             119.646    -11.4027   -10.0505      NaN
  6869 116069.2              126.591             121.304    -12.7272   -11.3765      NaN
  6931 117117.0              128.334             122.981    -12.2918   -10.9456      NaN
  6993 118164.8              130.084             124.676    -12.0997   -10.7597      NaN
  7055 119212.6              131.831             126.378    -12.2049   -10.867      NaN
  7117 120260.4              133.574             128.087    -12.325   -11.0053      NaN
  7179 121308.2              135.303             129.791    -12.3516   -11.0402      NaN
  7241 122356.0              137.047             131.484    -12.3723   -11.0701      NaN
  7303 123403.8              138.786             133.165    -12.3594   -11.0754      NaN
  7365 124451.6              140.571             134.84    -12.4287   -11.1658      NaN
  7427 125499.4              142.325             136.525    -12.5568   -11.2952      NaN
  7489 126547.2              144.066             138.247    -12.8934   -11.6564      NaN
  7551 127595.0              145.816             139.991    -13.102   -11.8735      NaN
  7613 128642.8              147.564             141.741    -13.1785   -11.955      NaN
  7675 129690.6              149.294             143.498    -13.115   -11.9083      NaN
  7737 130738.4              151.043             145.256    -12.4323   -11.2458      NaN
  7799 131786.2              152.787             147.014     -9.831318    -8.668253      NaN
  7861 132834.0              154.542             148.771     -1.491825    -0.336661      NaN
  7923 133881.8              156.282             150.532     23.5114    24.6247      NaN
  7985 134929.6              158.035             152.298     43.2076    44.3247      NaN
  8047 135977.4              159.775             154.056      3.758091     4.856079      NaN
  8109 137025.2              161.516             155.805    -10.592    -9.533144      NaN
  8171 138073.0              163.26             157.556    -11.6342   -10.5827      NaN
  8233 139120.8              165.01             159.305    -11.7919   -10.7748      NaN
  8295 140168.6              166.756             161.056    -11.8328   -10.8501      NaN
  8357 141216.4              168.507             162.804    -11.9488   -11.0325      NaN
  8419 142264.2              170.259             164.559    -12.0589   -11.1351      NaN
  8481 143312.0              171.995             166.311    -12.154   -11.2871      NaN
  8543 144359.8              173.744             168.063    -12.483   -11.676      NaN
  8605 145407.6              175.488             169.814    -13.8746   -13.0948      NaN
  8667 146455.4              177.234             171.567    -11.6035   -10.9299      NaN
  8729 147503.2              178.983             173.321    -12.5393   -11.9011      NaN
  8791 148551.0              180.733             175.07    -13.8681   -13.2707      NaN
  8853 149598.8              182.469             176.818   -119.687  -119.028 0.788921
  8915 150646.6              184.218             178.547    -60.769   -60.2021 0.786919
  8977 151694.4              185.973             180.302    -16.9401   -16.4438 0.784847
  9039 152742.2              187.715             182.056    -16.4626   -16.0338 0.782733
  9101 153790.0              189.455             183.806    -16.4891   -16.069 0.780576
  9163 154837.8              191.207             185.557    -16.5796   -16.241 0.778366
  9225 155885.6              192.958             187.311    -16.7757   -16.343 0.776097
  9287 156933.4              194.704             189.064    -16.9624   -16.6361 0.773768
  9349 157981.2              196.437             190.818    -17.14   -16.8401 0.771375
  9411 159029.0              198.176             192.565    -17.4455   -17.4214 0.768920
  9473 160076.8              199.939             194.309    -17.5016   -17.3732 0.766394
  9535 161124.6              201.69             196.064    -17.7818   -17.7178 0.763773
  9597 162172.4              203.431             197.821    -18.1153   -17.9505 0.761059
  9659 163220.2              205.176             199.576    -18.3942   -18.2891 0.758255
  9721 164268.0              206.91             201.329    -18.688   -18.7495 0.755349
  9783 165315.8              208.672             203.078    -18.7936   -18.796 0.752341
  9845 166363.6              210.422             204.836    -19.1403   -19.2107 0.749196
  9907 167411.4              212.166             206.596    -19.4641   -19.5097 0.745917
  9969 168459.2              213.911             208.356    -20.0495   -20.2123 0.742493
 10031 169507.0              215.659             210.117    -20.4288   -20.5507 0.738913
 10093 170554.8              217.408             211.881    -20.7612   -20.9257 0.735155
 10155 171602.6              219.155             213.648    -21.1261   -21.4052 0.731201
 10217 172650.4              220.9             215.419    -21.7906   -21.8471 0.727031
 10279 173698.2              222.64             217.188    -22.3825   -22.6541 0.722636
 10341 174746.0              224.392             218.952    -22.8014   -23.1126 0.718003
 10403 175793.8              226.129             220.718    -23.3037   -23.7159 0.713084
 10465 176841.6              227.823             222.456    -23.6348   -24.0913 0.707940
 10527 177889.4              229.526             224.048    -22.2612   -22.6297 0.702933
 10589 178937.2              231.378             225.639    -23.349   -23.824 0.697618
 10651 179985.0              233.15             227.308    -25.0602   -25.3391 0.691670
 10713 181032.8              234.898             229.042    -26.6972   -27.0842 0.685034
 10775 182080.6              236.65             230.83    -28.5616   -28.9954 0.677640
 10837 183128.4              238.388             232.655    -30.3716   -30.7958 0.669434
 10899 184176.2              240.124             234.487    -31.9135   -32.3813 0.660426
 10961 185224.0              241.865             236.313    -33.5334   -33.8345 0.650558
 11023 186271.8              243.608             238.129    -35.1461   -35.9726 0.639711
 11085 187319.6              245.347             239.934    -36.9822   -37.3566 0.627732
 11147 188367.4              247.097             241.725    -39.1947   -39.631 0.614461
 11209 189415.2              248.839             243.513    -41.8414   -42.2124 0.599568
 11271 190463.0              250.585             245.291    -45.0556   -45.377 0.582811
 11333 191510.8              252.331             247.062    -48.7103   -49.2141 0.563795
 11395 192558.6              254.077             248.827    -53.0733   -53.4783 0.542048
 11457 193606.4              255.822             250.589    -58.4501   -58.9671 0.516949
 11519 194654.2              257.569             252.348    -65.008   -65.2863 0.487695
 11581 195702.0              259.314             254.104    -72.9756   -73.3172 0.453301
 11643 196749.8              261.061             255.859    -82.9808   -83.5324 0.412344
 11705 197797.6              262.808             257.612    -94.9579   -95.382 0.362977
 11767 198845.4              264.555             259.363   -108.047  -108.488 0.302451
 11829 199893.2              266.3             261.113   -120.206  -120.731 0.226708
 11891 200941.0              268.046             262.864   -119.36  -119.777 0.128955
 11953 201988.8              269.795             264.618    -93.7589   -94.2473      NaN
 12015 203036.6              271.54             266.381    -36.2661   -36.816      NaN
 12077 204084.4              273.285             268.145    -32.3975   -32.803      NaN
 12139 205132.2              275.032             269.906    -32.3563   -32.8434      NaN
 12201 206180.0              276.778             271.664    -32.3115   -32.8308      NaN
 12263 207227.8              278.527             273.42    -32.2576   -32.7653      NaN
 12325 208275.6              280.272             275.179    -32.2855   -32.8175      NaN
 12387 209323.4              282.018             276.935    -32.2749   -32.7374      NaN
 12449 210371.2              283.764             278.691    -32.2508   -32.7128      NaN
 12511 211419.0              285.509             280.446    -32.2662   -32.7431      NaN
 12573 212466.8              287.257             282.201    -32.2919   -32.7828      NaN
 12635 213514.6              289.003             283.955    -32.3014   -32.7995      NaN
 12697 214562.4              290.749             285.708    -32.3228   -32.867      NaN
 12759 215610.2              292.494             287.462    -32.3279   -32.9034      NaN
 12821 216658.0              294.243             289.214    -32.3147   -32.9061      NaN
 12883 217705.8              295.99             290.965    -32.2633   -32.9174      NaN
 12900 217993.1              296.467             291.444    -32.2405   -32.9181      NaN