File: i_data_processed/27Sep/8.73wt%_climb_proc.txt
 Index  Time(s)  Furnace Temperature(K)  Sample Temperature(K)  HeatFlow(mW)  Q_Corrected       Fc
  6001 101400.0              107.324             107.769     -0.068002     0.415987      NaN
  6063 102447.8              107.279             107.684     -0.123749     0.378365      NaN
  6125 103495.6              107.228             107.608     -0.152956     0.332316      NaN
  6187 104543.4              107.23             107.548     -0.243637     0.257316      NaN
  6249 105591.2              109.118             107.696     -1.912722    -1.409387      NaN
  6311 106639.0              110.854             108.346     -4.199027    -3.543152      NaN
  6373 107686.8              112.607             109.299     -5.682512    -4.774759      NaN
  6435 108734.6              114.359             110.47     -6.804615    -5.746601      NaN
  6497 109782.4              116.105             111.798     -7.667213    -6.507817      NaN
  6559 110830.2              117.853             113.238     -8.380775    -7.151299      NaN
  6621 111878.0              119.599             114.759     -8.996733    -7.715743      NaN
  6683 112925.8              121.346             116.336     -9.589700    -8.270845      NaN
  6745 113973.6              123.09             117.957    -10.3733    -9.031948      NaN
  6807 115021.4              124.85             119.601    -11.5708   -10.2185      NaN
  6869 116069.2              126.581             121.272    -13.0424   -11.6917      NaN
  6931 117117.0              128.335             122.953    -12.5394   -11.1932      NaN
  6993 118164.8              130.088             124.654    -12.2814   -10.9414      NaN
  7055 119212.6              131.824             126.353    -12.296   -10.9581      NaN
  7117 120260.4              133.566             128.06    -12.4311   -11.1114      NaN
  7179 121308.2              135.333             129.774    -12.5889   -11.2775      NaN
  7241 122356.0              137.062             131.493    -12.6694   -11.3672      NaN
  7303 123403.8              138.828             133.216    -12.7912   -11.5073      NaN
  7365 124451.6              140.563             134.944    -12.8745   -11.6116      NaN
  7427 125499.4              142.309             136.676    -12.9751   -11.7134      NaN
  7489 126547.2              144.045             138.406    -13.0461   -11.8091      NaN
  7551 127595.0              145.801             140.138    -13.1309   -11.9025      NaN
  7613 128642.8              147.538             141.874    -13.1938   -11.9704      NaN
  7675 129690.6              149.301             143.611    -13.1631   -11.9565      NaN
  7737 130738.4              151.039             145.351    -12.6668   -11.4803      NaN
  7799 131786.2              152.79             147.09    -10.2756    -9.112582      NaN
  7861 132834.0              154.533             148.833     -1.684458    -0.529294      NaN
  7923 133881.8              156.281             150.585     24.1973    25.3106      NaN
  7985 134929.6              158.028             152.345     52.852    53.9691      NaN
  8047 135977.4              159.773             154.1     11.2144    12.3124      NaN
  8109 137025.2              161.511             155.844     -8.947017    -7.888127      NaN
  8171 138073.0              163.262             157.588    -11.0215    -9.969924      NaN
  8233 139120.8              165.007             159.331    -11.4134   -10.3964      NaN
  8295 140168.6              166.754             161.076    -11.5766   -10.5939      NaN
  8357 141216.4              168.506             162.822    -11.689   -10.7726      NaN
  8419 142264.2              170.253             164.569    -11.8066   -10.8829      NaN
  8481 143312.0              172             166.318    -11.9472   -11.0803      NaN
  8543 144359.8              173.744             168.069    -12.3304   -11.5234      NaN
  8605 145407.6              175.489             169.82    -13.4988   -12.7189      NaN
  8667 146455.4              177.235             171.574    -11.6202   -10.9466      NaN
  8729 147503.2              178.978             173.33    -12.4932   -11.8549      NaN
  8791 148551.0              180.727             175.081    -14.6671   -14.0698      NaN
  8853 149598.8              182.475             176.831   -123.308  -122.649 0.732144
  8915 150646.6              184.219             178.564    -76.004   -75.4371 0.729598
  8977 151694.4              185.968             180.323    -17.5512   -17.0549 0.726962
  9039 152742.2              187.712             182.083    -16.7143   -16.2855 0.724270
  9101 153790.0              189.462             183.842    -16.79   -16.3699 0.721517
  9163 154837.8              191.21             185.6    -17.02   -16.6814 0.718700
  9225 155885.6              192.957             187.358    -17.3173   -16.8846 0.715812
  9287 156933.4              194.699             189.116    -17.4589   -17.1327 0.712848
  9349 157981.2              196.451             190.873    -17.6309   -17.331 0.709802
  9411 159029.0              198.196             192.631    -18.066   -18.0419 0.706664
  9473 160076.8              199.941             194.389    -18.2668   -18.1385 0.703431
  9535 161124.6              201.68             196.146    -18.416   -18.3521 0.700094
  9597 162172.4              203.429             197.902    -18.5456   -18.3808 0.696647
  9659 163220.2              205.179             199.657    -18.7803   -18.6752 0.693083
  9721 164268.0              206.928             201.413    -19.1269   -19.1884 0.689385
  9783 165315.8              208.671             203.169    -19.471   -19.4734 0.685544
  9845 166363.6              210.418             204.927    -19.7559   -19.8264 0.681546
  9907 167411.4              212.163             206.682    -20.2094   -20.2551 0.677387
  9969 168459.2              213.908             208.438    -20.4771   -20.6399 0.673044
 10031 169507.0              215.657             210.195    -20.8676   -20.9895 0.668503
 10093 170554.8              217.404             211.955    -21.333   -21.4975 0.663734
 10155 171602.6              219.151             213.717    -21.9572   -22.2363 0.658721
 10217 172650.4              220.895             215.474    -22.5211   -22.5777 0.653463
 10279 173698.2              222.645             217.23    -22.9147   -23.1863 0.647918
 10341 174746.0              224.385             218.988    -23.5879   -23.8991 0.642051
 10403 175793.8              226.132             220.746    -24.0964   -24.5085 0.635831
 10465 176841.6              227.882             222.502    -24.8611   -25.3176 0.629228
 10527 177889.4              229.625             224.259    -25.6449   -26.0134 0.622185
 10589 178937.2              231.381             226.014    -26.5605   -27.0355 0.614657
 10651 179985.0              233.116             227.774    -27.7077   -27.9866 0.606557
 10713 181032.8              234.872             229.532    -28.6134   -29.0004 0.597844
 10775 182080.6              236.609             231.291    -29.9247   -30.3586 0.588410
 10837 183128.4              238.36             233.052    -31.3465   -31.7707 0.578161
 10899 184176.2              240.101             234.805    -32.576   -33.0438 0.567021
 10961 185224.0              241.856             236.561    -34.5316   -34.8327 0.554794
 11023 186271.8              243.6             238.318    -36.6782   -37.5047 0.541311
 11085 187319.6              245.342             240.079    -39.0453   -39.4196 0.526342
 11147 188367.4              247.087             241.832    -41.4202   -41.8564 0.509717
 11209 189415.2              248.843             243.586    -44.5054   -44.8763 0.491066
 11271 190463.0              250.581             245.34    -48.1496   -48.471 0.469998
 11333 191510.8              252.327             247.093    -52.2838   -52.7876 0.446046
 11395 192558.6              254.078             248.848    -57.3268   -57.7318 0.418564
 11457 193606.4              255.824             250.605    -63.5237   -64.0407 0.386750
 11519 194654.2              257.57             252.362    -70.9664   -71.2447 0.349626
 11581 195702.0              259.312             254.116    -79.9437   -80.2853 0.305956
 11643 196749.8              261.061             255.87    -90.8986   -91.4502 0.253969
 11705 197797.6              262.802             257.619   -103.791  -104.215 0.191410
 11767 198845.4              264.554             259.366   -115.008  -115.449 0.114736
 11829 199893.2              266.298             261.114    -94.3956   -94.9205 0.018720
 11891 200941.0              268.045             262.871    -38.0375   -38.455      NaN
 11953 201988.8              269.802             264.633    -31.8232   -32.3116      NaN
 12015 203036.6              271.534             266.396    -31.5962   -32.1462      NaN
 12077 204084.4              273.288             268.15    -31.5924   -31.9979      NaN
 12139 205132.2              275.029             269.908    -31.5921   -32.0791      NaN
 12201 206180.0              276.776             271.66    -31.8162   -32.3355      NaN
 12263 207227.8              278.524             273.412    -31.9034   -32.4111      NaN
 12325 208275.6              280.272             275.166    -31.9728   -32.5048      NaN
 12387 209323.4              282.018             276.92    -32.0314   -32.4938      NaN
 12449 210371.2              283.764             278.675    -32.0028   -32.4647      NaN
 12511 211419.0              285.511             280.428    -31.9633   -32.4402      NaN
 12573 212466.8              287.256             282.179    -31.9611   -32.452      NaN
 12635 213514.6              289.002             283.932    -31.9236   -32.4216      NaN
 12697 214562.4              290.75             285.685    -31.9372   -32.4814      NaN
 12759 215610.2              292.497             287.439    -31.9545   -32.5301      NaN
 12821 216658.0              294.242             289.192    -31.9547   -32.5461      NaN
 12883 217705.8              295.989             290.943    -31.9017   -32.5558      NaN
 12900 217993.1              296.471             291.422    -31.8597   -32.5373      NaN