File: i_data/0.10Kmin/mean_H2O-NH3_0g.csv
Index,Time(s),Furnace Temperature(K),Sample Temperature(K),HeatFlow(mW),Q_Corrected,T(K),Sample Temperature(K)_2
57.0,946.4,298.149,299.0,0.990192,0.990192,299.0,299.005
11261.1,190296,297.981,297.0,0.538472,0.538472,297.0,297.075
9628.5,162704.75,295.819,295.0,0.414909,0.414909,295.0,295.029
9395.34,158764.346,293.791,293.0,0.476282,0.476282,293.0,292.995
9467.0,159975.4,291.583,291.0,0.485683,0.485683,291.0,290.997
9882.3,166994,289.966,289.0,0.497054,0.497054,289.0,288.992
9833.06,166162,287.828,287.0,0.49887,0.49887,287.0,287.006
9783.83,165330,285.708,285.0,0.492933,0.492933,285.0,284.993
9879.44,166946,283.876,283.0,0.492331,0.492331,283.0,283.007
9828.89,166091,281.814,281.0,0.507571,0.507571,281.0,280.991
9836.8,166225,279.891,279.0,0.516364,0.516364,279.0,279.002
9525.7,160967,277.452,277.0,0.580915,0.580915,277.0,277
9735.37,164511,275.871,275.0,0.656376,0.656376,275.0,274.999
9684.15,163645,273.876,273.0,0.66377,0.66377,273.0,272.998
9378.98,158488,271.464,271.0,0.695666,0.695666,271.0,271.001
9526.22,160976,269.806,269.0,0.645234,0.645234,269.0,268.995
9339.74,157825,267.6,267.0,0.741685,0.741685,267.0,267.002
9232.5,156012.35,265.524,265.0,0.742295,0.742295,265.0,265.002
9183.5,155184.25,263.545,263.0,0.686886,0.686886,263.0,262.998
9134.5,154356.15,261.576,261.0,0.743043,0.743043,261.0,261
9142.87,154498,259.704,259.0,0.790558,0.790558,259.0,258.993
9037.74,152721,257.644,257.0,0.73479,0.73479,257.0,256.994
8988.98,151897,255.672,255.0,0.744095,0.744095,255.0,254.992
8995.94,152014,253.818,253.0,0.82106,0.82106,253.0,253.005
8946.94,151186,251.841,251.0,0.844015,0.844015,251.0,250.995
8727.25,147473.625,249.588,249.0,0.767204,0.767204,249.0,249.003
8624.02,145729,247.522,247.0,0.92542,0.92542,247.0,246.993
8577.02,144935,245.57,245.0,0.695072,0.695072,245.0,245.001
8586.0,145086.5,243.71,243.0,0.895672,0.895672,243.0,243.005
8484.53,143372,241.647,241.0,0.951681,0.951681,241.0,240.995
8279.44,139906,239.411,239.0,1.06584,1.06584,239.0,238.994
8290.73,140097,237.563,237.0,0.844106,0.844106,237.0,237.001
8190.44,138401,235.51,235.0,0.971231,0.971231,235.0,234.994
8200.94,138579,233.655,233.0,0.962703,0.962703,233.0,232.998
8101.71,136902,231.616,231.0,0.988585,0.988585,231.0,231.01
8057.25,136150.625,229.655,229.0,0.98862,0.98862,229.0,229
7924.98,133915.262,227.546,227.0,0.919963,0.919963,227.0,226.999
7827.57,132269,225.498,225.0,0.798796,0.798796,225.0,224.996
7784.86,131547,223.543,223.0,0.887654,0.887654,223.0,222.994
7743.14,130842,221.598,221.0,0.978603,0.978603,221.0,221.001
7700.71,130125,219.647,219.0,0.833225,0.833225,219.0,218.998
7582.0,128118.9,217.572,217.0,0.73758,0.73758,217.0,217.006
7488.2,126534,215.517,215.0,0.623269,0.623269,215.0,214.995
7379.27,124692.75,213.452,213.0,0.790339,0.790339,213.0,213.005
7408.1,125179.99,211.621,211.0,0.737011,0.737011,211.0,211.004
7132.96,120530.15,209.225,209.0,0.765961,0.765961,209.0,208.994
7210.33,121838,207.498,207.0,0.622632,0.622632,207.0,207.003
7171.96,121189,205.554,205.0,0.511155,0.511155,205.0,204.995
7023.31,118677.0,203.433,203.0,0.587521,0.587521,203.0,203.011
6986.96,118062.75,201.459,201.0,0.557719,0.557719,201.0,200.992
6846.87,115695,199.326,199.0,0.390122,0.390122,199.0,199.01
6812.21,115109,197.381,197.0,0.376399,0.376399,197.0,196.993
6680.59,112885,195.289,195.0,0.201682,0.201682,195.0,195.005
6698.73,113192,193.468,193.0,0.375024,0.375024,193.0,192.995
6524.45,110246,191.281,191.0,0.191182,0.191182,191.0,190.999
6493.45,109722,189.351,189.0,0.00326091,0.00326091,189.0,189.005
6512.57,110046,187.51,187.0,-0.0273302,-0.0273302,187.0,187.001
6349.125,107283,185.332,185.0,-0.0222402,-0.0222402,185.0,185.003
6369.42,107626,183.491,183.0,-0.153679,-0.153679,183.0,182.997
6214.3,105005,181.322,181.0,-0.182626,-0.182626,181.0,181.005
6188.07,104561,179.397,179.0,-0.15128,-0.15128,179.0,178.998
6064.5,102473.15,177.3,177.0,-0.205398,-0.205398,177.0,177.002
5994.85,101296,175.284,175.0,-0.221117,-0.221117,175.0,174.996
5905.75,99790.275,173.236,173.0,-0.1778484,-0.1778484,173.0,172.999
5867.85,99149.8,171.286,171.0,-0.195349,-0.195349,171.0,171
5804.02,98071,169.282,169.0,-0.316229,-0.316229,169.0,169.001
5727.05,96770.2,167.248,167.0,-0.426724,-0.426724,167.0,166.999
5698.81,96293,165.302,165.0,-0.212709,-0.212709,165.0,165
5630.58,95140,163.271,163.0,-0.339093,-0.339093,163.0,163.002
5525.38,93362.1,161.165,161.0,-0.3927636,-0.3927636,161.0,161.008
5467.23,92379.2,159.142,159.0,-0.518251,-0.518251,159.0,159.004
5413.57,91472.4,157.122,157.0,-0.43842,-0.43842,157.0,156.997
5407.04,91362.2,155.199,155.0,-0.369878,-0.369878,155.0,155
5318.81,89871,153.115,153.0,-0.308556,-0.308556,153.0,153.007
5353.99,90465.5,151.257,151.0,-0.319624,-0.319624,151.0,150.996
5241.79,88569.3,149.118,149.0,-0.416027,-0.416027,149.0,149.001
5244.78,88619.9,147.19,147.0,-0.438152,-0.438152,147.0,146.997
5184.04,87593.376,145.143,145.0,-0.574832,-0.574832,145.0,145.004
5127.93,86645.2,143.08,143.0,-0.4740924,-0.4740924,143.0,142.996
5169.92,87354.8,141.176,141.0,-0.442308,-0.442308,141.0,140.999
5125.73,86607.95,139.119,139.0,-0.511699,-0.511699,139.0,139
5090.0,86004.1,137.059,137.0,-0.472758,-0.472758,137.0,137
5062.01,85531.1,135.094,135.0,-0.507896,-0.507896,135.0,134.998
5003.8,84547.4,133.017,133.0,-0.485014,-0.485014,133.0,133
4997.14,84434.7,131.023,131.0,-0.531268,-0.531268,131.0,130.995
4982.84,84193,128.999,129.0,-0.608073,-0.608073,129.0,128.994
5001.91,84515.3,127.052,127.0,-0.601196,-0.601196,127.0,127.001
4973.79,84040.2,124.991,125.0,-0.650646,-0.650646,125.0,125.004
4951.66,83666.2,122.939,123.0,-0.630596,-0.630596,123.0,122.997
4931.712,83329,120.943,121.0,-0.665855,-0.665855,121.0,120.994
4946.57,83580.2,118.918,119.0,-0.616364,-0.616364,119.0,118.997
5042.28,85197.6,116.89,117.0,-0.595584,-0.595584,117.0,116.998
5221.07,88219.1,114.898,115.0,-0.571565,-0.571565,115.0,114.988
5383.15,90958.3,112.846,113.0,-0.559556,-0.559556,113.0,112.972
6008.54,101527,110.882,111.0,-0.564996,-0.564996,111.0,111.004
6264.0,105844.7,110.239,110.0,-0.573674,-0.573674,110.0,110.34