File: i_data/0.10Kmin/mean_H2O-NH3_4.8873g.csv
Index,Time(s),Furnace Temperature(K),Sample Temperature(K),HeatFlow(mW),T(K),Sample Temperature(K)_2
81.0,1352.0,299.456,300.0,11.8745,300.0,299.987
13928.2,235369,299.057,298.0,0.380917,298.0,298.218
10518.3,177742.37,296.675,296.0,-7.56281,296.0,296.029
9616.88,162508,294.781,294.0,-4.81459,294.0,294.014
9697.21,163866,292.641,292.0,-2.49335,292.0,291.995
9852.98,166498,290.731,290.0,-2.26902,290.0,289.998
10014.4,169227,288.906,288.0,-2.82105,288.0,287.991
9818.19,165911,286.602,286.0,0.173474,286.0,285.997
9913.89,167528,284.766,284.0,-0.63369,284.0,283.991
9863.89,166683,282.74,282.0,-0.025095,282.0,281.999
10081.8,170365.52,281.16,280.0,-3.38641,280.0,280
9763.67,164989,278.734,278.0,-3.08805,278.0,278.01
9713.67,164144,276.729,276.0,-130.064,276.0,275.995
9719.33,164240,274.822,274.0,-264.708,274.0,274.01
9667.33,163361,272.788,272.0,-181.498,272.0,272.002
9559.56,161540,270.686,270.0,-104.165,270.0,269.996
9508.78,160681,268.7,268.0,-59.9329,268.0,267.998
9458.0,159823.3,266.726,266.0,-34.1825,266.0,266.001
9407.22,158965,264.754,264.0,-18.963,264.0,264.005
9356.67,158111,262.763,262.0,-9.50784,262.0,261.992
9174.36,155030,260.577,260.0,70.2859,260.0,260.001
9069.15,153252,258.499,258.0,339.117,258.0,258
9020.39,152428,256.517,256.0,253.803,256.0,255.995
9027.43,152547,254.653,254.0,98.5086,254.0,253.995
8923.63,150792,252.607,252.0,34.9216,252.0,251.996
8874.87,149968,250.655,250.0,13.0504,250.0,249.993
8711.25,147203.225,248.502,248.0,7.11189,248.0,247.995
8608.17,145461,246.456,246.0,5.00292,246.0,245.995
8617.0,145610.4,244.614,244.0,3.28912,244.0,244.002
8515.17,143889,242.564,242.0,2.96314,242.0,241.998
8468.43,143099,240.606,240.0,2.30951,240.0,239.992
8422.43,142322,238.672,238.0,1.88743,238.0,238.014
8375.94,141536,236.702,236.0,1.47453,236.0,236
8230.57,139080,234.57,234.0,1.88295,234.0,233.994
8283.96,139982,232.791,232.0,0.806131,232.0,231.998
7997.26,135136.794,230.41,230.0,2.20742,230.0,229.999
8042.48,135901,228.624,228.0,1.34259,228.0,227.999
7998.75,135162,226.693,226.0,0.937616,226.0,226.007
7813.57,132032,224.477,224.0,1.47278,224.0,223.993
7771.57,131323,222.54,222.0,1.35864,222.0,222.001
7596.6,128365.64,220.346,220.0,1.86548,220.0,219.989
7556.3,127684.57,218.419,218.0,1.55662,218.0,217.997
7516.0,127003.5,216.504,216.0,1.16336,216.0,216.016
7475.6,126321,214.543,214.0,0.696093,214.0,213.988
7314.04,123590,212.394,212.0,1.28069,212.0,212.004
7395.5,124967.05,210.662,210.0,0.414434,210.0,209.995
7175.96,121257,208.385,208.0,1.16938,208.0,208
7198.67,121641,206.564,206.0,0.399381,206.0,206.006
7048.87,119109,204.394,204.0,0.704563,204.0,204.001
7012.19,118489.15,202.446,202.0,0.714287,202.0,201.994
6923.17,116985,200.422,200.0,0.605851,200.0,199.999
6836.98,115528,198.372,198.0,0.623215,198.0,197.992
6802.32,114942,196.427,196.0,0.221171,196.0,195.988
6671.57,112733,194.317,194.0,0.383418,194.0,194.005
6638.93,112181,192.369,192.0,0.277145,192.0,191.992
6655.91,112468,190.529,190.0,-0.363184,190.0,190.003
6485.27,109584,188.335,188.0,-0.135697,188.0,188.002
6454.64,109066,186.407,186.0,-0.310991,186.0,186
6389.58,107967,184.412,184.0,-0.21536,184.0,183.998
6233.32,105326,182.249,182.0,0.184748,182.0,182.001
6206.7,104876,180.312,180.0,-0.171562,180.0,179.989
6106.45,103182,178.251,178.0,-6.66029,178.0,178.004
6081.84,102766,176.346,176.0,-7.02273,176.0,176.003
5921.33,100054,174.183,174.0,1.22469,174.0,173.995
5882.89,99403.9,172.266,172.0,-0.315393,172.0,172.002
5863.47,99075.7,170.357,170.0,-0.710752,170.0,169.995
5741.27,97010.6,168.251,168.0,-0.0592245,168.0,168.001
5668.89,95787.3,166.212,166.0,0.133217,166.0,165.994
5600.95,94639.2,164.181,164.0,0.0554672,164.0,163.998
5537.77,93571.4,162.154,162.0,0.0293512,162.0,161.998
5520.94,93287,160.216,160.0,0.0262702,160.0,159.999
5511.48,93127.1,158.248,158.0,1.03414,158.0,157.996
5547.77,93740.5,156.322,156.0,3.38094,156.0,156
5492.55,92807.2,154.259,154.0,2.98349,154.0,153.994
5440.79,91932.5,152.17,152.0,1.55903,152.0,151.996
5433.32,91806.3,150.244,150.0,0.247947,150.0,149.996
5349.5,90389.65,148.144,148.0,-0.0940882,148.0,147.997
5346.01,90330.7,146.252,146.0,-0.479559,146.0,146.002
5240.75,88551.7,144.106,144.0,-0.265042,144.0,144
5212.72,88078,142.139,142.0,-0.430499,142.0,142.003
5185.58,87619.3,140.107,140.0,-0.368258,140.0,139.998
5140.43,86856.3,138.112,138.0,-0.455329,138.0,138.004
5072.73,85712.25,136.019,136.0,-0.345696,136.0,135.996
5094.1,86073.39,134.113,134.0,-0.55096,134.0,134
5089.22,85991,132.054,132.0,-0.634417,132.0,132.001
5049.21,85314.8,130.022,130.0,-0.553712,130.0,130.001
4989.84,84311.4,128.006,128.0,-0.562813,128.0,127.998
4953.65,83699.8,125.97,126.0,-0.615652,126.0,125.997
4961.96,83840.2,123.968,124.0,-0.661455,124.0,123.991
4960.26,83811.6,121.936,122.0,-0.677783,122.0,121.994
4986.38,84252.9,119.983,120.0,-0.735479,120.0,120.001
5028.53,84965.3,117.952,118.0,-0.599826,118.0,117.995
5061.44,85521.4,115.921,116.0,-0.509945,116.0,115.996
5124.71,86590.7,113.934,114.0,-0.442275,114.0,113.995
5241.88,88570.9,111.991,112.0,-0.458012,112.0,111.994
5356.8,90513.1,109.992,110.0,-0.468271,110.0,109.999
5503.78,92996.9,107.931,108.0,-0.450618,108.0,107.975
5968.0,100842.3,106.192,106.0,-0.462911,106.0,106.33