File: z_unorganized_archive/i_data/0.25Kmin/H2O-NH3_4.7459g.csv
NH3-H2O 4wt%  Specific Heat - Large HF,,,,
Creation Date : 6/27/2022 10:38:41 AM,,,,
User : admin,,,,
,,,,
HeatFlow :,,,,
 Initial Mass : 4745.9 mg,,,,
 Molar Mass : 17 g/mol,,,,
,,,,
Index,Time(s),Furnace Temperature(K),Sample Temperature(K),HeatFlow(mW)
1,0,298.952,298.91,38.07456
58,661.2,298.8,298.909,4.162047
115,1322.4,298.274,298.837,1.59342
172,1983.6,296.857,298.552,5.90317
229,2644.8,293.851,297.807,16.9238
286,3306,289.479,296.316,36.9607
343,3967.2,284.682,294.066,60.6828
400,4628.4,279.89,291.228,81.1801
457,5289.6,275.229,287.933,97.5435
514,5950.8,270.735,284.338,109.079
571,6612,266.452,280.575,116.336
628,7273.2,262.344,276.733,120.346
685,7934.4,258.364,272.869,122.092
742,8595.6,254.506,269.017,122.795
799,9256.8,250.791,265.206,122.88
856,9918,247.176,261.454,121.061
913,10579.2,243.645,257.81,1231.77
970,11240.4,240.227,254.273,703.702
1027,11901.6,236.912,250.739,257.809
1084,12562.8,233.675,247.264,133.549
1141,13224,230.511,243.866,100.378
1198,13885.2,227.416,240.547,85.47
1255,14546.4,224.392,237.305,75.96564
1312,15207.6,221.47,234.14,68.5755
1369,15868.8,218.626,231.058,63.2067
1426,16530,215.854,228.051,58.0559
1483,17191.2,213.15,225.122,54.078
1540,17852.4,210.505,222.261,51.6642
1597,18513.6,207.923,219.471,48.7475
1654,19174.8,205.41,216.747,46.2152
1711,19836,202.962,214.091,43.7069
1768,20497.2,200.575,211.497,41.8395
1825,21158.4,198.26,208.9672,38.9855
1882,21819.6,196.006,206.502,39.1134
1939,22480.8,193.798,204.098,35.8606
1996,23142,191.608,201.748,34.1755
2053,23803.2,189.359,199.433,32.052
2110,24464.4,187.097,197.14,32.1607
2167,25125.6,184.888,194.87,31.0667
2224,25786.8,182.775,192.63,31.3201
2281,26448,180.825,190.441,29.4278
2338,27109.2,178.966,188.324,28.8234
2395,27770.4,177.064,186.262,27.54062
2452,28431.6,175.13,184.236,26.6001
2509,29092.8,173.172,182.232,25.6361
2566,29754,171.291,180.253,24.8028
2623,30415.2,169.465,178.306,23.7403
2680,31076.4,167.661,176.397,23.6271
2737,31737.6,165.887,174.519,22.5458
2794,32398.8,164.096,172.663,22.0408
2851,33060,162.3646,170.834,21.6704
2908,33721.2,160.651,169.031,21.5682
2965,34382.4,158.914,167.254,20.6991
3022,35043.6,157.06,165.468,20.90361
3079,35704.8,155.299,163.689,20.3766
3136,36366,153.283,161.89,20.3544
3193,37027.2,151.133,160.047,20.6459
3250,37688.4,148.824,158.115,21.7943
3307,38349.6,146.669,156.14,22.0592
3364,39010.8,144.229,154.1,22.1959
3421,39672,142.146,152.024,22.1912
3478,40333.2,140.244,149.978,21.4903
3535,40994.4,138.151,147.939,21.0165
3592,41655.6,136.355,145.924,20.7855
3649,42316.8,134.535,143.956,19.8093
3706,42978,132.616,142.007,19.2428
3763,43639.2,130.984,140.094,18.77511
3820,44300.4,129.097,138.221,18.1224
3877,44961.6,127.275,136.351,17.7855
3934,45622.8,125.444,134.486,17.4838
3991,46284,123.616,132.645,17.1151
4048,46945.2,121.666,130.782,17.13766
4105,47606.4,119.959,128.936,16.7903
4162,48267.6,118.361,127.123,16.5936
4219,48928.8,116.998,125.376,15.9075
4276,49590,115.631,123.699,15.0498
4333,50251.2,114.275,122.084,14.3655
4390,50912.4,113.047,120.53,13.56052
4447,51573.6,111.513,119.008,13.042
4504,52234.8,110.203,117.501,12.8081
4561,52896,108.858,116.029,12.1727
4618,53557.2,107.7,114.6,11.6717
4675,54218.4,106.32,113.198,11.2268
4732,54879.6,105.2,111.821,10.8637
4789,55540.8,104.216,110.507,10.2438
4846,56202,103.251,109.256,9.5439
4903,56863.2,102.106,108.039,9.148636
4960,57524.4,101.21,106.855,8.843375
5017,58185.6,100.291,105.726,8.328821
5074,58846.8,99.5077,104.642,7.868605
5131,59508,98.7067,103.619,7.394234
5188,60169.2,97.9948,102.638,6.998275
5245,60830.4,97.34426,101.719,6.513915
5302,61491.6,96.728,100.846,6.014695
5359,62152.8,96.2969,100.041,5.513707
5416,62814,95.7985,99.3044,4.946879
5473,63475.2,95.2728,98.6042,4.666962
5530,64136.4,94.8947,97.9541,4.287675
5587,64797.6,94.5613,97.3584,3.792842
5644,65458.8,94.238,96.8147,3.427337
5701,66120,93.9997,96.321,3.01775
5758,66781.2,93.7767,95.8807,2.64661
5815,67442.4,93.50582,95.4761,2.352002
5872,68103.6,93.3021,95.1037,2.122811
5929,68764.8,93.1892,94.7741,1.816321
5986,69426,93.1767,94.4977,1.436645
6043,70087.2,93.2013,94.2786,0.987276
6100,70748.4,93.2848,94.1103,0.596112
6157,71409.6,93.4654,94.0021,0.148289
6214,72070.8,93.6634,93.9514,-0.267966
6271,72732,93.8537,93.9474,-0.620072
6328,73393.2,94.0448,93.98075,-0.860455
6385,74054.4,94.2462,94.0454,-1.109597
6442,74715.6,94.4603,94.137,-1.327637
6499,75376.8,94.6537,94.25054,-1.46218
6556,76038,94.788,94.3735,-1.547164
6613,76699.2,94.957,94.50083,-1.475097
6670,77360.4,95.0297,94.6267,-1.574649
6727,78021.6,95.1801,94.7457,-1.488384
6784,78682.8,95.455,94.8857,-1.701169
6841,79344,95.6397,95.04267,-1.830543
6898,80005.2,95.9553,95.2182,-1.958523
6955,80666.4,96.2921,95.4252,-2.181122
7012,81327.6,96.60137,95.65502,-2.346141
7069,81988.8,96.9153,95.8999,-2.472839
7126,82650,97.2048,96.1552,-2.558738
7183,83311.2,97.4848,96.4163,-2.602118
7240,83972.4,97.7635,96.6812,-2.637596
7297,84633.6,98.0293,96.94686,-2.644569
7354,85294.8,98.2708,97.2099,-2.609178
7411,85956,98.4885,97.4657,-2.573776
7468,86617.2,98.6777,97.71134,-2.500667
7525,87278.4,98.8487,97.9426,-2.384676
7582,87939.6,99.0134,98.1616,-2.282388
7639,88600.8,99.2043,98.3728,-2.240015
7696,89262,99.3586,98.5753,-2.17548
7753,89923.2,99.5236,98.7701,-2.117095
7810,90584.4,99.645,98.95481,-2.041088
7867,91245.6,99.78,99.1279,-1.939411
7924,91906.8,99.8951,99.2916,-1.882876
7981,92568,102.632,99.6068,-3.252213
8038,93229.2,105.55,100.464,-7.166053
8095,93890.4,108.313,101.696,-10.0968
8152,94551.6,111.064,103.222,-12.4069
8209,95212.8,113.838,104.979,-14.3303
8266,95874,116.597,106.927,-15.9442
8323,96535.2,119.34,109.021,-17.3128
8380,97196.4,122.108,111.229,-18.4973
8437,97857.6,124.869,113.536,-19.5643
8494,98518.8,127.621,115.921,-20.58575
8551,99180,130.376,118.369,-21.6535
8608,99841.2,133.132,120.867,-23.1245
8665,100502.4,135.886,123.402,-25.0592
8722,101163.6,138.644,125.975,-25.25
8779,101824.8,141.4,128.573,-25.74799
8836,102486,144.155,131.198,-26.3559
8893,103147.2,146.911,133.841,-26.8687
8950,103808.4,149.666,136.503,-27.3793
9007,104469.6,152.42,139.182,-27.8806
9064,105130.8,155.179,141.873,-28.3387
9121,105792,157.936,144.577,-28.8146
9178,106453.2,160.683,147.292,-29.23884
9235,107114.4,163.445,150.016,-29.2271
9292,107775.6,166.198,152.747,-27.6627
9349,108436.8,168.953,155.484,-22.4409
9406,109098,171.712,158.229,-8.447773
9463,109759.2,174.466,160.983,-0.245231
9520,110420.4,177.226,163.738,-14.6933
9577,111081.6,179.975,166.498,-25.2899
9634,111742.8,182.73,169.259,-29.6214
9691,112404,185.489,172.021,-71.0197
9748,113065.2,188.241,174.785,-1.872816
9805,113726.4,191,177.552,-89.5778
9862,114387.6,193.75,180.316,-59.4227
9919,115048.8,196.512,183.089,-37.3454
9976,115710,199.261,185.866,-36.28
10033,116371.2,202.015,188.645,-36.7196
10090,117032.4,204.773,191.43,-37.3269
10147,117693.6,207.526,194.217,-37.9754
10204,118354.8,210.283,197.01,-38.6232
10261,119016,213.036,199.803,-39.12849
10318,119677.2,215.798,202.601,-39.8573
10375,120338.4,218.548,205.404,-40.6264
10432,120999.6,221.302,208.206,-41.4484
10489,121660.8,224.053,211.008,-42.3109
10546,122322,226.803,213.81,-43.157
10603,122983.2,229.567,216.608,-44.0021
10660,123644.4,232.314,219.409,-45.1498
10717,124305.6,235.072,222.206,-46.2309
10774,124966.8,237.827,225.001,-47.5223
10831,125628,240.568,227.786,-48.8539
10888,126289.2,243.346,230.572,-50.516
10945,126950.4,246.102,233.366,-52.601
11002,127611.6,248.841,236.157,-54.9039
11059,128272.8,251.595,238.947,-57.7146
11116,128934,254.366,241.737,-61.0462
11173,129595.2,257.106,244.535,-65.1811
11230,130256.4,259.866,247.317,-70.4851
11287,130917.6,262.629,250.107,-77.16255
11344,131578.8,265.368,252.887,-86.4598
11401,132240,268.118,255.663,-98.7174
11458,132901.2,270.881,258.438,-116.048
11515,133562.4,273.644,261.204,-141.024
11572,134223.6,276.4024,263.972,-177.663
11629,134884.8,279.177,266.755,-231.728
11686,135546,281.92,269.548,-305.128
11743,136207.2,284.669,272.337,-340.764
11800,136868.4,287.428,275.132,-350.124
11857,137529.6,290.188,277.923,-519.646
11914,138190.8,292.927,280.72,-194.41
11971,138852,295.677,283.531,-100.763
12028,139513.2,298.422,286.336,-88.7099
12085,140174.4,299.228,288.98,-84.6636
12142,140835.6,299.169,291.03,-70.4646
12199,141496.8,299.187,292.601,-54.622
12256,142158,299.179,293.81,-41.9841
12313,142819.2,299.139,294.731,-32.0089
12370,143480.4,299.169,295.431,-23.9859
12427,144141.6,299.1568,295.973,-18.3355
12484,144802.8,299.139,296.387,-13.9084
12541,145464,299.171,296.701,-10.2191
12598,146125.2,299.167,296.95,-7.867967
12655,146786.4,299.151,297.149,-6.00872
12712,147447.6,299.159,297.295,-4.343319
12769,148108.8,299.163,297.412,-3.205546
12826,148770,299.159,297.509,-2.388172
12883,149431.2,299.172,297.591,-1.853615
12940,150092.4,299.156,297.664,-1.517298
12997,150753.6,299.171,297.724,-1.122325
13054,151414.8,299.16,297.78,-0.888265
13111,152076,299.173,297.831,-0.658698
13168,152737.2,299.165,297.883,-0.649051
13225,153398.4,299.157,297.922,-0.452654
13282,154059.6,299.157,297.956,-0.203404
13339,154720.8,299.148,297.985,0.020941
13396,155382,299.148,298.004,0.235834
13453,156043.2,299.154,298.02,0.450207
13510,156704.4,299.157,298.033,0.49208
13567,157365.6,299.155,298.047,0.571883
13624,158026.8,299.151,298.06,0.574279
13681,158688,299.152,298.071,0.599845
13738,159349.2,299.156,298.082,0.708308
13795,160010.4,299.158,298.093,0.637762
13852,160671.6,299.153,298.106,0.653372
13909,161332.8,299.137,298.112,0.890894
13966,161994,299.117,298.094,2.540232
14023,162655.2,299.127,298.049,5.670417
14080,163316.4,299.16,298.012,6.476127
14137,163977.6,299.189,298.008,6.102492
14194,164638.8,299.171,298.03,3.606426
14251,165300,299.166,298.057,2.613268
14308,165961.2,299.159,298.085,2.000143
14365,166622.4,299.157,298.111,1.098043
14422,167283.6,299.155,298.135,0.649406
14479,167944.8,299.153,298.155,1.141414
14536,168606,299.152,298.171,1.312666
14593,169267.2,299.153,298.183,1.42454
14650,169928.4,299.148,298.194,1.3866
14707,170589.6,299.1526,298.201,1.48166
14764,171250.8,299.149,298.208,1.396877
14821,171912,299.15,298.213,1.471004
14878,172573.2,299.152,298.217,1.58769
14897,172793.6,299.153,298.219,1.48438