File: z_unorganized_archive/i_data/0.25Kmin/H2O-NH3_4.3987g.csv
NH3-H2O 10wt%  Specific Heat - Large HF,,,,
Creation Date : 7/20/2022 2:35:24 PM,,,,
User : admin,,,,
,,,,
HeatFlow :,,,,
 Initial Mass : 4398.7 mg,,,,
 Molar Mass : 17 g/mol,,,,
,,,,
Index,Time(s),Furnace Temperature(K),Sample Temperature(K),HeatFlow(mW)
1,0,299.111,299.144,79.0395
58,661.2,299.085,299.143,8.677285
115,1322.4,298.753,299.106,1.070748
172,1983.6,297.658,298.907,3.286773
229,2644.8,295.654,298.379,10.8322
286,3306,292.45,297.35,23.2871
343,3967.2,288.069,295.629,41.1716
400,4628.4,283.259,293.207,61.5157
457,5289.6,278.44,290.232,78.8937
514,5950.8,273.747,286.82,92.986
571,6612,269.295,283.146,102.345
628,7273.2,265.074,279.337,107.629
685,7934.4,261.041,275.479,109.92
742,8595.6,257.156,271.623,110.409
799,9256.8,253.414,267.804,109.522
856,9918,249.81,264.044,107.702
913,10579.2,246.305,260.357,105.5822
970,11240.4,242.928,256.751,103.22
1027,11901.6,239.635,253.232,100.889
1084,12562.8,236.441,249.796,97.887
1141,13224,233.318,246.446,94.9341
1198,13885.2,230.263,243.209,660.046
1255,14546.4,227.314,240.041,252.391
1312,15207.6,224.464,236.931,142.535
1369,15868.8,221.656,233.896,111.128
1426,16530,218.904,230.931,96.66862
1483,17191.2,216.232,228.039,85.9952
1540,17852.4,213.634,225.216,77.5108
1597,18513.6,211.093,222.464,70.5969
1654,19174.8,208.611,219.777,64.84955
1711,19836,206.185,217.154,59.6539
1768,20497.2,203.837,214.594,55.3382
1825,21158.4,201.556,212.099,51.4709
1882,21819.6,199.318,209.664,48.7639
1939,22480.8,197.122,207.287,45.6242
1996,23142,194.984,204.964,43.4189
2053,23803.2,192.916,202.698,41.3137
2110,24464.4,190.899,200.486,38.9951
2167,25125.6,188.927,198.33,36.3293
2224,25786.8,186.997,196.224,35.1826
2281,26448,185.109,194.167,33.553
2338,27109.2,183.27,192.158,31.956
2395,27770.4,181.44,190.193,30.5575
2452,28431.6,179.659,188.265,29.5085
2509,29092.8,177.903,186.377,28.5409
2566,29754,176.217,184.529,27.2303
2623,30415.2,174.546,182.722,26.2032
2680,31076.4,172.852,180.945,25.1164
2737,31737.6,171.169,179.193,24.8816
2794,32398.8,169.53,177.46,23.8366
2851,33060,168.041,175.769,23.1159
2908,33721.2,166.609,174.13,22.1785
2965,34382.4,165.103,172.529,22.1279
3022,35043.6,163.596,170.949,21.2947
3079,35704.8,162.215,169.399,20.8207
3136,36366,160.905,167.896,19.4603
3193,37027.2,159.626,166.437,18.8106
3250,37688.4,158.362,165.02,18.0957
3307,38349.6,157.109,163.635,17.8559
3364,39010.8,155.883,162.281,17.3846
3421,39672,154.7,160.96,16.9361
3478,40333.2,153.532,159.669,16.3673
3535,40994.4,152.325,158.402,15.5746
3592,41655.6,151.049,157.142,15.7545
3649,42316.8,149.705,155.874,15.41344
3706,42978,148.373,154.592,15.8636
3763,43639.2,147.25,153.323,15.2551
3820,44300.4,146.211,152.096,14.6105
3877,44961.6,145.238,150.912,14.29859
3934,45622.8,144.273,149.773,13.8041
3991,46284,143.222,148.659,13.05653
4048,46945.2,142.119,147.553,13.0675
4105,47606.4,141.021,146.448,12.8565
4162,48267.6,139.925,145.347,12.63942
4219,48928.8,138.869,144.251,12.6246
4276,49590,137.817,143.165,12.2729
4333,50251.2,136.822,142.093,12.2304
4390,50912.4,135.83,141.036,11.67883
4447,51573.6,134.846,139.994,11.5918
4504,52234.8,133.909,138.966,11.3787
4561,52896,133.015,137.961,11.2759
4618,53557.2,132.146,136.981,10.6814
4675,54218.4,131.366,136.032,10.27027
4732,54879.6,130.563,135.112,9.972004
4789,55540.8,129.747,134.212,9.912361
4846,56202,128.992,133.3375,9.353285
4903,56863.2,128.266,132.486,8.906136
4960,57524.4,127.563,131.662,8.618166
5017,58185.6,126.794,130.855,8.38441
5074,58846.8,126.008,130.053,8.33281
5131,59508,125.33,129.2629,8.061885
5188,60169.2,124.667,128.497,7.6799
5245,60830.4,124.044,127.757,7.594533
5302,61491.6,123.348,127.028,7.407777
5359,62152.8,122.784,126.319,7.0954
5416,62814,122.165,125.636,6.819716
5473,63475.2,121.545,124.959,6.592159
5530,64136.4,121.06,124.309,6.363722
5587,64797.6,120.471,123.6798,6.116599
5644,65458.8,119.954,123.063,5.893608
5701,66120,119.448,122.469,5.646695
5758,66781.2,118.877,121.885,5.503447
5815,67442.4,118.316,121.303,5.430767
5872,68103.6,117.769,120.726,5.295608
5929,68764.8,117.204,120.153,5.216491
5986,69426,116.712,119.588,5.199148
6043,70087.2,116.248,119.04,5.449801
6100,70748.4,115.801,118.508,4.797032
6157,71409.6,115.453,118.002,4.452752
6214,72070.8,115.052,117.523,4.183892
6271,72732,114.58,117.049,4.023265
6328,73393.2,114.059,116.572,4.017016
6385,74054.4,113.639,116.093,3.964933
6442,74715.6,113.28,115.635,3.75898
6499,75376.8,112.854,115.186,3.627956
6556,76038,112.432,114.743,3.52999
6613,76699.2,112.014,114.304,3.443412
6670,77360.4,111.678,113.875,3.309202
6727,78021.6,111.459,113.476,3.057661
6784,78682.8,111.195,113.108,2.787041
6841,79344,110.928,112.757,2.624803
6898,80005.2,110.745,112.429,2.427431
6955,80666.4,110.59,112.134,2.152038
7012,81327.6,110.435,111.862,1.913843
7069,81988.8,110.227,111.609,1.692624
7126,82650,110.062,111.365,1.583833
7183,83311.2,109.879,111.137,1.456284
7240,83972.4,109.738,110.919,1.356337
7297,84633.6,109.634,110.719,1.194633
7354,85294.8,109.553,110.541,1.027038
7411,85956,109.398,110.373,0.912289
7468,86617.2,109.3142,110.213,0.852496
7525,87278.4,109.22,110.07,0.710074
7582,87939.6,109.044,109.923,0.716446
7639,88600.8,109.036,109.788,0.622765
7696,89262,109.021,109.676,0.427472
7753,89923.2,109.037,109.586,0.254596
7810,90584.4,109.032,109.513,0.096462
7867,91245.6,109.032,109.453,-0.004997
7924,91906.8,109.02,109.402,-0.07967
7981,92568,109.016,109.36,-0.154703
8038,93229.2,108.998,109.323,-0.203513
8095,93890.4,108.969,109.288,-0.222327
8152,94551.6,110.57,109.308,-0.77475
8209,95212.8,113.822,109.844,-4.802555
8266,95874,116.573,110.819,-8.414794
8323,96535.2,119.334,112.128,-11.2933
8380,97196.4,122.097,113.708,-13.7669
8437,97857.6,124.858,115.509,-15.9979
8494,98518.8,127.617,117.487,-18.2229
8551,99180,130.374,119.609,-21.021
8608,99841.2,133.13,121.845,-25.6603
8665,100502.4,135.887,124.176,-28.21156
8722,101163.6,138.645,126.582,-27.0688
8779,101824.8,141.399,129.051,-27.7927
8836,102486,144.157,131.573,-28.6506
8893,103147.2,146.911,134.137,-29.43179
8950,103808.4,149.665,136.735,-30.1162
9007,104469.6,152.422,139.363,-30.7456
9064,105130.8,155.179,142.013,-31.303
9121,105792,157.933,144.6845,-31.8054
9178,106453.2,160.689,147.374,-31.9248
9235,107114.4,163.445,150.078,-29.1114
9292,107775.6,166.2,152.795,-10.9531
9349,108436.8,168.954,155.528,68.51493
9406,109098,171.699,158.273,72.3543
9463,109759.2,174.445,161.0017,-14.48034
9520,110420.4,177.171,163.708,-26.764
9577,111081.6,179.974,166.41,-28.1684
9634,111742.8,182.749,169.14,-29.7483
9691,112404,185.502,171.894,-47.8001
9748,113065.2,188.253,174.665,-27.6799
9805,113726.4,191.003,177.444,-122.392
9862,114387.6,193.752,180.203,-264.951
9919,115048.8,196.515,182.995,-58.7639
9976,115710,199.268,185.801,-44.3914
10033,116371.2,202.017,188.608,-44.12278
10090,117032.4,204.774,191.415,-44.9533
10147,117693.6,207.521,194.221,-45.9106
10204,118354.8,210.283,197.026,-46.9589
10261,119016,213.034,199.834,-48.1662
10318,119677.2,215.797,202.641,-49.4058
10375,120338.4,218.549,205.451,-50.8541
10432,120999.6,221.3,208.26,-52.4302
10489,121660.8,224.054,211.069,-54.1511
10546,122322,226.814,213.875,-56.0336
10603,122983.2,229.564,216.684,-58.1103
10660,123644.4,232.323,219.491,-60.5726
10717,124305.6,235.078,222.299,-63.3592
10774,124966.8,237.836,225.108,-66.4597
10831,125628,240.586,227.916,-70.1502
10888,126289.2,243.342,230.722,-74.3456
10945,126950.4,246.097,233.529,-79.4932
11002,127611.6,248.853,236.335,-85.45575
11059,128272.8,251.61,239.142,-92.8377
11116,128934,254.367,241.949,-101.831
11173,129595.2,257.117,244.756,-113.103
11230,130256.4,259.876,247.562,-127.008
11287,130917.6,262.63,250.367,-144.775
11344,131578.8,265.381,253.17,-167.101
11401,132240,268.14,255.972,-193.086
11458,132901.2,270.894,258.773,-221.093
11515,133562.4,273.65,261.5749,-206.14
11572,134223.6,276.404,264.381,-139.341
11629,134884.8,279.157,267.194,-86.0206
11686,135546,281.914,270.006,-79.8797
11743,136207.2,284.671,272.818,-79.3463
11800,136868.4,287.426,275.628,-79.4892
11857,137529.6,290.179,278.436,-79.6022
11914,138190.8,292.936,281.242,-79.5652
11971,138852,295.685,284.046,-79.6993
12028,139513.2,298.444,286.847,-79.8257
12085,140174.4,299.232,289.495,-78.16601
12142,140835.6,299.181,291.547,-65.6275
12199,141496.8,299.173,293.111,-51.3847
12256,142158,299.167,294.301,-39.632
12313,142819.2,299.16,295.211,-30.551
12370,143480.4,299.166,295.916,-23.86145
12427,144141.6,299.161,296.461,-18.748
12484,144802.8,299.149,296.875,-14.6396
12541,145464,299.142,297.183,-11.2598
12598,146125.2,299.145,297.407,-8.57765
12655,146786.4,299.155,297.581,-6.737135
12712,147447.6,299.155,297.715,-5.46505
12769,148108.8,299.153,297.82,-4.467073
12826,148770,299.141,297.891,-3.503578
12883,149431.2,299.131,297.938,-2.682921
12940,150092.4,299.135,297.968,-2.056502
12997,150753.6,299.149,297.982,-1.523861
13054,151414.8,299.135,297.997,-1.382062
13111,152076,299.145,297.996,-0.961539
13168,152737.2,299.138,297.989,-0.6622
13225,153398.4,299.133,297.982,-0.465843
13282,154059.6,299.155,297.97,-0.223655
13339,154720.8,299.163,297.968,-0.061106
13396,155382,299.153,297.977,-0.085136
13453,156043.2,299.14,297.982,-0.004634
13510,156704.4,299.155,297.978,0.321148
13567,157365.6,299.137,297.983,0.220906
13624,158026.8,299.144,297.97,0.559739
13681,158688,299.142,297.959,0.719036
13738,159349.2,299.167,297.955,0.595794
13795,160010.4,299.137,297.957,0.394449
13852,160671.6,299.166,297.954,0.547904
13909,161332.8,299.172,297.97,0.251634
13966,161994,299.138,297.985,0.045142
14023,162655.2,299.155,297.989,0.363541
14080,163316.4,299.159,297.998,0.354269
14137,163977.6,299.153,298.005,0.349289
14194,164638.8,299.155,298.016,0.331778
14251,165300,299.161,298.028,0.294185
14308,165961.2,299.16,298.042,0.231535
14365,166622.4,299.159,298.057,0.211451
14422,167283.6,299.155,298.071,0.235991
14479,167944.8,299.161,298.087,0.246971
14536,168606,299.165,298.106,0.158065
14593,169267.2,299.164,298.128,0.102629
14650,169928.4,299.164,298.151,0.064184
14707,170589.6,299.161,298.175,0.034494
14764,171250.8,299.153,298.196,0.083059
14821,171912,299.155,298.213,0.208501
14878,172573.2,299.157,298.23,0.222054
14897,172793.6,299.157,298.235,0.249681