File: z_unorganized_archive/i_data/0.25Kmin/H2O-NH3_4wt%.csv
H2O-NH3 3.2wt%  Specific Heat - Large HF,,,,
Creation Date : 8/3/2022 1:07:56 PM,,,,
User : admin,,,,
,,,,
HeatFlow :,,,,
 Initial Mass : 4764.8 mg,,,,
 Molar Mass : 17 g/mol,,,,
,,,,
Index,Time(s),Furnace Temperature(K),Sample Temperature(K),HeatFlow(mW)
1,0,298.897,298.882,187.635
58,661.2,298.869,298.894,21.3389
115,1322.4,298.614,298.874,2.218634
172,1983.6,297.561,298.707,2.876614
229,2644.8,294.876,298.14,11.7756
286,3306,290.451,296.817,31.4219
343,3967.2,285.422,294.646,56.9945
400,4628.4,280.448,291.813,79.8006
457,5289.6,275.693,288.496,97.1171
514,5950.8,271.192,284.873,109.039
571,6612,266.905,281.087,115.959
628,7273.2,262.776,277.226,119.672
685,7934.4,258.82,273.346,121.373
742,8595.6,255.019,269.496,121.478
799,9256.8,251.349,265.698,120.851
856,9918,247.782,261.967,119.613
913,10579.2,244.321,258.312,118.046
970,11240.4,240.967,254.815,1354.07
1027,11901.6,237.749,251.386,464.419
1084,12562.8,234.62,247.977,162.569
1141,13224,231.547,244.648,104.345
1198,13885.2,228.551,241.401,86.0627
1255,14546.4,225.603,238.236,76.211
1312,15207.6,222.716,235.143,68.623
1369,15868.8,219.897,232.119,63.0805
1426,16530,217.152,229.167,59.5125
1483,17191.2,214.492,226.284,55.039
1540,17852.4,211.8907,223.472,52.0795
1597,18513.6,209.406,220.733,48.9585
1654,19174.8,207.003,218.072,46.123
1711,19836,204.665,215.488,43.7335
1768,20497.2,202.387,212.975,41.5003
1825,21158.4,200.152,210.527,39.2046
1882,21819.6,197.967,208.141,37.2812
1939,22480.8,195.834,205.813,34.8649
1996,23142,193.751,203.541,33.4384
2053,23803.2,191.713,201.323,31.4603
2110,24464.4,189.717,199.156,30.3456
2167,25125.6,187.77,197.037,29.399
2224,25786.8,185.871,194.968,27.7179
2281,26448,184.011,192.946,27.0647
2338,27109.2,182.19,190.967,25.7819
2395,27770.4,180.411,189.033,24.8419
2452,28431.6,178.669,187.14,23.67629
2509,29092.8,176.966,185.29,22.8404
2566,29754,175.296,183.478,22.6824
2623,30415.2,173.659,181.703,21.7256
2680,31076.4,172.058,179.965,20.66332
2737,31737.6,170.505,178.265,20.4201
2794,32398.8,168.989,176.602,19.8458
2851,33060,167.504,174.978,18.8759
2908,33721.2,166.05,173.388,18.30657
2965,34382.4,164.614,171.83,17.8307
3022,35043.6,163.2,170.304,17.7281
3079,35704.8,161.794,168.803,17.1382
3136,36366,160.409,167.328,16.6656
3193,37027.2,159.057,165.877,16.7225
3250,37688.4,157.729,164.452,15.9786
3307,38349.6,156.445,163.052,15.3947
3364,39010.8,155.193,161.682,15.1275
3421,39672,153.961,160.339,14.8221
3478,40333.2,152.739,159.022,14.0973
3535,40994.4,151.531,157.727,14.1068
3592,41655.6,150.376,156.455,13.4057
3649,42316.8,149.289,155.216,13.0686
3706,42978,148.225,154.011,12.6372
3763,43639.2,147.126,152.831,12.5367
3820,44300.4,145.977,151.664,12.0339
3877,44961.6,144.764,150.496,11.9739
3934,45622.8,143.517,149.317,12.1505
3991,46284,142.292,148.129,12.3679
4048,46945.2,141.116,146.939,12.4491
4105,47606.4,139.991,145.759,11.8761
4162,48267.6,138.991,144.601,11.7115
4219,48928.8,138.063,143.484,11.3927
4276,49590,137.153,142.407,10.6916
4333,50251.2,136.147,141.352,10.3529
4390,50912.4,135.193,140.311,10.2446
4447,51573.6,134.232,139.288,10.0287
4504,52234.8,133.367,138.285,9.763071
4561,52896,132.511,137.313,9.475258
4618,53557.2,131.667,136.362,8.910374
4675,54218.4,130.803,135.431,8.687272
4732,54879.6,129.911,134.51,8.654691
4789,55540.8,129.098,133.601,8.352285
4846,56202,128.332,132.718,8.082903
4903,56863.2,127.632,131.863,7.773627
4960,57524.4,126.933,131.037,7.519913
5017,58185.6,126.243,130.237,7.198256
5074,58846.8,125.574,129.459,6.963229
5131,59508,124.895,128.701,6.590401
5188,60169.2,124.184,127.955,6.571801
5245,60830.4,123.54,127.221,6.337131
5302,61491.6,122.901,126.505,6.143908
5359,62152.8,122.253,125.803,5.914154
5416,62814,121.657,125.117,5.751384
5473,63475.2,121.041,124.444,5.661895
5530,64136.4,120.423,123.785,5.476086
5587,64797.6,119.772,123.125,5.557354
5644,65458.8,119.242,122.482,5.263812
5701,66120,118.729,121.86,4.999114
5758,66781.2,118.252,121.265,4.8432
5815,67442.4,117.649,120.679,4.778615
5872,68103.6,117.072,120.089,4.732321
5929,68764.8,116.585,119.513,4.598806
5986,69426,116.015,118.945,4.483649
6043,70087.2,115.542,118.385,4.505919
6100,70748.4,115.062,117.841,4.274759
6157,71409.6,114.679,117.317,4.036077
6214,72070.8,114.212,116.814,3.862798
6271,72732,113.804,116.319,3.734254
6328,73393.2,113.437,115.848,3.562531
6385,74054.4,113.08,115.397,3.356895
6442,74715.6,112.737,114.963,3.218698
6499,75376.8,112.384,114.546,3.06397
6556,76038,112.041,114.143,2.927091
6613,76699.2,111.657,113.747,2.827761
6670,77360.4,111.267,113.35,2.809586
6727,78021.6,110.93,112.963,2.735422
6784,78682.8,110.583,112.582,2.657392
6841,79344,110.353,112.218,2.484669
6898,80005.2,110.157,111.885,2.281081
6955,80666.4,109.886,111.568,2.177147
7012,81327.6,109.716,111.268,2.019473
7069,81988.8,109.633,111.001,1.720488
7126,82650,109.579,110.773,1.361488
7183,83311.2,109.518,110.578,1.107597
7240,83972.4,109.383,110.4,0.962974
7297,84633.6,109.215,110.226,0.912035
7354,85294.8,108.963,110.044,0.96985
7411,85956,108.842,109.861,0.972098
7468,86617.2,108.729,109.692,0.851417
7525,87278.4,108.529,109.524,0.849047
7582,87939.6,108.454,109.361,0.790694
7639,88600.8,108.382,109.218,0.643555
7696,89262,108.204,109.075,0.627328
7753,89923.2,108.138,108.936,0.596314
7810,90584.4,108.067,108.813,0.470086
7867,91245.6,107.966,108.692,0.426852
7924,91906.8,107.915,108.584,0.342326
7981,92568,107.877,108.485,0.262992
8038,93229.2,107.824,108.397,0.166839
8095,93890.4,107.787,108.316,0.115599
8152,94551.6,110.965,108.47,-2.067666
8209,95212.8,113.816,109.185,-6.263753
8266,95874,116.575,110.283,-9.449271
8323,96535.2,119.338,111.694,-12.0672
8380,97196.4,122.1,113.358,-14.28761
8437,97857.6,124.859,115.226,-16.1847
8494,98518.8,127.619,117.258,-17.9631
8551,99180,130.375,119.424,-19.79362
8608,99841.2,133.132,121.696,-22.1494
8665,100502.4,135.888,124.056,-23.7375
8722,101163.6,138.642,126.484,-23.9513
8779,101824.8,141.399,128.971,-24.6605
8836,102486,144.156,131.507,-25.3626
8893,103147.2,146.911,134.083,-26.0258
8950,103808.4,149.667,136.691,-26.6435
9007,104469.6,152.422,139.325,-27.2069
9064,105130.8,155.177,141.982,-27.7431
9121,105792,157.934,144.658,-28.2683
9178,106453.2,160.689,147.351,-28.67443
9235,107114.4,163.445,150.056,-28.45529
9292,107775.6,166.2,152.7722,-25.66476
9349,108436.8,168.954,155.498,-14.10136
9406,109098,171.708,158.234,10.0217
9463,109759.2,174.462,160.975,-10.7687
9520,110420.4,177.218,163.716,-25.974
9577,111081.6,179.976,166.464,-28.57
9634,111742.8,182.728,169.213,-29.8976
9691,112404,185.483,171.969,-70.7151
9748,113065.2,188.246,174.734,8.373399
9805,113726.4,190.992,177.51,-84.9329
9862,114387.6,193.749,180.278,-62.0106
9919,115048.8,196.507,183.062,-37.3233
9976,115710,199.258,185.852,-36.1428
10033,116371.2,202.016,188.643,-36.5589
10090,117032.4,204.768,191.438,-37.1654
10147,117693.6,207.528,194.234,-37.61516
10204,118354.8,210.283,197.036,-38.335
10261,119016,213.037,199.838,-39.0017
10318,119677.2,215.793,202.642,-39.69323
10375,120338.4,218.546,205.448,-40.4082
10432,120999.6,221.301,208.254,-41.2884
10489,121660.8,224.063,211.062,-42.05439
10546,122322,226.813,213.87,-42.91676
10603,122983.2,229.571,216.679,-43.9801
10660,123644.4,232.321,219.489,-45.0944
10717,124305.6,235.079,222.298,-46.2645
10774,124966.8,237.832,225.108,-47.6259
10831,125628,240.587,227.917,-49.1412
10888,126289.2,243.347,230.725,-50.7586
10945,126950.4,246.097,233.536,-52.8932
11002,127611.6,248.852,236.346,-55.2217
11059,128272.8,251.606,239.156,-58.1127
11116,128934,254.362,241.964,-61.5609
11173,129595.2,257.12,244.771,-65.78374
11230,130256.4,259.873,247.579,-71.3998
11287,130917.6,262.628,250.386,-78.6111
11344,131578.8,265.384,253.192,-88.3369
11401,132240,268.139,255.996,-101.81
11458,132901.2,270.894,258.8,-121.422
11515,133562.4,273.65,261.603,-150.518
11572,134223.6,276.404,264.401,-195.395
11629,134884.8,279.16,267.194,-265.715
11686,135546,281.915,269.982,-370.457
11743,136207.2,284.665,272.762,-496.245
11800,136868.4,287.422,275.536,-511.127
11857,137529.6,290.181,278.34,-163.701
11914,138190.8,292.935,281.162,-96.9337
11971,138852,295.691,283.983,-88.5368
12028,139513.2,298.445,286.798,-87.31433
12085,140174.4,299.24,289.462,-84.862
12142,140835.6,299.19,291.533,-70.95729
12199,141496.8,299.18,293.117,-55.2412
12256,142158,299.166,294.322,-42.248
12313,142819.2,299.148,295.241,-32.161
12370,143480.4,299.154,295.944,-24.5192
12427,144141.6,299.154,296.48,-18.6419
12484,144802.8,299.152,296.885,-14.079
12541,145464,299.15,297.193,-10.59786
12598,146125.2,299.139,297.425,-7.918872
12655,146786.4,299.15,297.595,-5.729963
12712,147447.6,299.142,297.718,-4.094441
12769,148108.8,299.145,297.81,-2.913471
12826,148770,299.148,297.881,-2.084831
12883,149431.2,299.153,297.934,-1.450121
12940,150092.4,299.138,297.967,-0.833518
12997,150753.6,299.15,297.991,-0.411943
13054,151414.8,299.131,298.005,-0.112081
13111,152076,299.152,298.01,0.245616
13168,152737.2,299.16,298.021,0.253166
13225,153398.4,299.162,298.035,0.139197
13282,154059.6,299.163,298.052,0.06625
13339,154720.8,299.149,298.064,0.14417
13396,155382,299.139,298.071,0.29383
13453,156043.2,299.149,298.074,0.459623
13510,156704.4,299.146,298.071,0.609628
13567,157365.6,299.141,298.067,0.678283
13624,158026.8,299.143,298.064,0.70832
13681,158688,299.153,298.057,0.768911
13738,159349.2,299.152,298.055,0.699058
13795,160010.4,299.14,298.057,0.588869
13852,160671.6,299.155,298.052,0.730469
13909,161332.8,299.161,298.056,0.592131
13966,161994,299.152,298.065,0.407623
14023,162655.2,299.159,298.073,0.416201
14080,163316.4,299.147,298.082,0.376551
14137,163977.6,299.146,298.082,0.606018
14194,164638.8,299.161,298.087,0.569286
14251,165300,299.159,298.097,0.412072
14308,165961.2,299.154,298.107,0.337755
14365,166622.4,299.159,298.12,0.34084
14422,167283.6,299.16,298.132,0.308228
14479,167944.8,299.161,298.147,0.254336
14536,168606,299.161,298.165,0.186887
14593,169267.2,299.16,298.184,0.163888
14650,169928.4,299.16,298.202,0.152216
14707,170589.6,299.155,298.22,0.14655
14764,171250.8,299.15,298.232,0.25706
14821,171912,299.153,298.243,0.357787
14878,172573.2,299.15,298.253,0.387642
14897,172793.6,299.147,298.255,0.427452