File: z_unorganized_archive/i_data/0.25Kmin/H2O-NH3_4.9859g.csv
H2O 0wt%  Specific Heat - Large HF,,,,
Creation Date : 7/25/2022 9:36:48 AM,,,,
User : admin,,,,
,,,,
HeatFlow :,,,,
 Initial Mass : 4985.9 mg,,,,
 Molar Mass : 18 g/mol,,,,
,,,,
Index,Time(s),Furnace Temperature(K),Sample Temperature(K),HeatFlow(mW)
1,0,298.778,298.412,79.7892
58,661.2,298.61,298.485,5.162586
115,1322.4,298.344,298.496,-2.193029
172,1983.6,297.363,298.365,0.650117
229,2644.8,294.706,297.84,9.89497
286,3306,290.259,296.547,30.33528
343,3967.2,285.2,294.394,57.3708
400,4628.4,280.173,291.565,81.6449
457,5289.6,275.426,288.242,100.355
514,5950.8,270.954,284.622,112.916
571,6612,266.717,280.847,120.135
628,7273.2,262.683,277.013,124.031
685,7934.4,258.807,273.175,125.762
742,8595.6,255.069,269.372,126.101
799,9256.8,251.445,265.622,125.515
856,9918,247.926,261.94,123.918
913,10579.2,244.515,258.413,1892.43
970,11240.4,241.234,255.011,580.93
1027,11901.6,238.011,251.532,97.3982
1084,12562.8,234.861,248.13,56.85552
1141,13224,231.788,244.812,51.3514
1198,13885.2,228.786,241.578,49.1951
1255,14546.4,225.861,238.424,47.6358
1312,15207.6,223.002,235.347,45.8651
1369,15868.8,220.208,232.343,45.3524
1426,16530,217.488,229.41,43.8285
1483,17191.2,214.823,226.545,42.2511
1540,17852.4,212.242,223.748,39.8298
1597,18513.6,209.729,221.02,38.5697
1654,19174.8,207.288,218.362,37.3863
1711,19836,204.912,215.769,36.2207
1768,20497.2,202.591,213.243,35.0713
1825,21158.4,200.333,210.777,33.3037
1882,21819.6,198.122,208.373,32.6525
1939,22480.8,195.962,206.024,31.6062
1996,23142,193.852,203.732,30.4229
2053,23803.2,191.797,201.493,28.9199
2110,24464.4,189.789,199.306,28.4809
2167,25125.6,187.836,197.17,27.1601
2224,25786.8,185.93,195.086,26.3945
2281,26448,184.059,193.051,25.5406
2338,27109.2,182.2311,191.0605,24.4266
2395,27770.4,180.451,189.116,23.7432
2452,28431.6,178.719,187.216,23.2782
2509,29092.8,177.018,185.36,22.1359
2566,29754,175.368,183.546,21.7951
2623,30415.2,173.759,181.776,20.5056
2680,31076.4,172.183,180.046,20.4347
2737,31737.6,170.647,178.356,19.0056
2794,32398.8,169.139,176.705,18.5544
2851,33060,167.669,175.091,17.9471
2908,33721.2,166.21,173.511,17.74255
2965,34382.4,164.805,171.964,16.9505
3022,35043.6,163.43,170.453,16.5833
3079,35704.8,162.07,168.972,15.92249
3136,36366,160.763,167.525,15.4488
3193,37027.2,159.506,166.113,14.8511
3250,37688.4,158.286,164.739,14.2571
3307,38349.6,157.099,163.401,14.0085
3364,39010.8,155.924,162.096,13.5107
3421,39672,154.658,160.81,13.76505
3478,40333.2,153.419,159.53,13.2954
3535,40994.4,152.284,158.274,13.0438
3592,41655.6,151.153,157.044,12.598
3649,42316.8,150.048,155.836,12.3181
3706,42978,148.978,154.655,12.2339
3763,43639.2,147.955,153.502,11.4066
3820,44300.4,146.952,152.378,11.09788
3877,44961.6,145.96,151.279,10.9618
3934,45622.8,144.988,150.204,10.5774
3991,46284,144.029,149.152,10.3435
4048,46945.2,143.093,148.121,9.898344
4105,47606.4,142.181,147.111,9.72227
4162,48267.6,141.29,146.125,9.367609
4219,48928.8,140.416,145.158,9.310341
4276,49590,139.562,144.212,9.131756
4333,50251.2,138.707,143.285,8.593272
4390,50912.4,137.863,142.372,8.503766
4447,51573.6,137.042,141.476,8.396823
4504,52234.8,136.228,140.596,8.158851
4561,52896,135.429,139.731,8.065445
4618,53557.2,134.665,138.881,7.869958
4675,54218.4,133.944,138.052,7.503742
4732,54879.6,133.256,137.248,7.108056
4789,55540.8,132.585,136.468,6.996111
4846,56202,131.922,135.71,6.926664
4903,56863.2,131.251,134.968,6.493992
4960,57524.4,130.603,134.242,6.382845
5017,58185.6,129.974,133.534,6.221383
5074,58846.8,129.35,132.841,5.986782
5131,59508,128.739,132.162,5.813589
5188,60169.2,128.147,131.499,5.551502
5245,60830.4,127.542,130.848,5.446816
5302,61491.6,126.961,130.207,5.377342
5359,62152.8,126.398,129.581,5.21673
5416,62814,125.845,128.966,5.03131
5473,63475.2,125.293,128.364,4.935419
5530,64136.4,124.757,127.773,4.7435
5587,64797.6,124.232,127.193,4.622916
5644,65458.8,123.709,126.624,4.503495
5701,66120,123.193,126.064,4.39786
5758,66781.2,122.695,125.514,4.296305
5815,67442.4,122.21,124.976,4.103853
5872,68103.6,121.73,124.448,3.995393
5929,68764.8,121.273,123.931,3.905788
5986,69426,120.844,123.427,3.77843
6043,70087.2,120.433,122.938,3.705755
6100,70748.4,120.029,122.468,3.452595
6157,71409.6,119.626,122.008,3.410569
6214,72070.8,119.155,121.554,3.31131
6271,72732,118.688,121.094,3.280765
6328,73393.2,118.228,120.634,3.334452
6385,74054.4,117.806,120.178,3.262324
6442,74715.6,117.44,119.733,3.214828
6499,75376.8,117.109,119.309,3.053271
6556,76038,116.774,118.9,2.903973
6613,76699.2,116.428,118.505,2.757142
6670,77360.4,116.071,118.116,2.706692
6727,78021.6,115.715,117.735,2.640553
6784,78682.8,115.306,117.352,2.639382
6841,79344,114.922,116.967,2.694531
6898,80005.2,114.608,116.588,2.632598
6955,80666.4,114.336,116.225,2.501315
7012,81327.6,114.081,115.883,2.345808
7069,81988.8,113.81,115.553,2.280277
7126,82650,113.613,115.242,2.132679
7183,83311.2,113.425,114.953,1.944209
7240,83972.4,113.256,114.684,1.770087
7297,84633.6,113.045,114.431,1.621653
7354,85294.8,112.813,114.183,1.541466
7411,85956,112.484,113.928,1.600466
7468,86617.2,112.203,113.662,1.684652
7525,87278.4,112.006,113.403,1.625218
7582,87939.6,111.767,113.152,1.551495
7639,88600.8,111.575,112.907,1.476227
7696,89262,111.384,112.671,1.410981
7753,89923.2,111.229,112.448,1.302012
7810,90584.4,111.1,112.24,1.183075
7867,91245.6,110.964,112.045,1.073182
7924,91906.8,110.841,111.864,0.968726
7981,92568,110.7,111.691,0.885754
8038,93229.2,110.574,111.525,0.828681
8095,93890.4,110.435,111.3646,0.776366
8152,94551.6,110.3646,111.212,0.719883
8209,95212.8,113.749,111.338,-1.758476
8266,95874,116.567,112.025,-6.092764
8323,96535.2,119.331,113.099,-9.416797
8380,97196.4,122.093,114.487,-12.1546
8437,97857.6,124.856,116.133,-14.4191
8494,98518.8,127.613,117.987,-16.3236
8551,99180,130.371,120.006,-17.9218
8608,99841.2,133.13,122.163,-19.30508
8665,100502.4,135.887,124.43,-20.49175
8722,101163.6,138.641,126.785,-21.545
8779,101824.8,141.386,129.208,-22.3935
8836,102486,144.155,131.689,-23.1988
8893,103147.2,146.909,134.22,-23.9361
8950,103808.4,149.68,136.796,-24.6495
9007,104469.6,152.42,139.409,-25.3094
9064,105130.8,155.174,142.043,-25.83096
9121,105792,157.941,144.702,-26.3798
9178,106453.2,160.686,147.384,-26.8888
9235,107114.4,163.448,150.08,-27.36531
9292,107775.6,166.199,152.79,-27.8219
9349,108436.8,168.959,155.511,-28.2518
9406,109098,171.71,158.241,-28.6708
9463,109759.2,174.468,160.978,-29.0712
9520,110420.4,177.217,163.72,-29.46297
9577,111081.6,179.978,166.468,-29.8679
9634,111742.8,182.731,169.222,-30.2684
9691,112404,185.487,171.983,-30.6952
9748,113065.2,188.239,174.752,-31.1155
9805,113726.4,190.998,177.527,-31.5313
9862,114387.6,193.748,180.308,-31.9481
9919,115048.8,196.506,183.093,-32.3485
9976,115710,199.262,185.883,-32.7437
10033,116371.2,202.017,188.674,-33.105
10090,117032.4,204.771,191.471,-33.5036
10147,117693.6,207.528,194.269,-33.8867
10204,118354.8,210.283,197.07,-34.3031
10261,119016,213.032,199.873,-34.6606
10318,119677.2,215.79,202.675,-35.0442
10375,120338.4,218.547,205.479,-35.4248
10432,120999.6,221.299,208.284,-35.7593
10489,121660.8,224.057,211.088,-36.1142
10546,122322,226.812,213.894,-36.5912
10603,122983.2,229.566,216.701,-36.9127
10660,123644.4,232.319,219.506,-37.2956
10717,124305.6,235.079,222.313,-37.6772
10774,124966.8,237.839,225.122,-38.0987
10831,125628,240.5857,227.932,-38.461
10888,126289.2,243.341,230.74,-38.9151
10945,126950.4,246.097,233.549,-39.2602
11002,127611.6,248.851,236.356,-39.5754
11059,128272.8,251.609,239.164,-40.1347
11116,128934,254.367,241.973,-40.45311
11173,129595.2,257.123,244.785,-40.9738
11230,130256.4,259.874,247.596,-41.3253
11287,130917.6,262.627,250.406,-41.7092
11344,131578.8,265.384,253.214,-42.1601
11401,132240,268.14,256.023,-42.6487
11458,132901.2,270.893,258.831,-43.0494
11515,133562.4,273.647,261.638,-43.533
11572,134223.6,276.405,264.443,-44.044
11629,134884.8,279.16,267.249,-44.6306
11686,135546,281.914,270.053,-45.28402
11743,136207.2,284.67,272.858,-46.214
11800,136868.4,287.425,275.658,-232.157
11857,137529.6,290.175,278.418,-686.603
11914,138190.8,292.935,281.149,-988.432
11971,138852,295.682,283.883,-873.487
12028,139513.2,298.441,286.681,-219.813
12085,140174.4,299.239,289.362,-105.875
12142,140835.6,299.186,291.447,-77.3052
12199,141496.8,299.175,293.041,-59.0097
12256,142158,299.169,294.254,-45.1491
12313,142819.2,299.164,295.182,-34.6068
12370,143480.4,299.165,295.901,-26.8527
12427,144141.6,299.163,296.456,-20.8943
12484,144802.8,299.148,296.88,-16.1924
12541,145464,299.149,297.196,-12.3596
12598,146125.2,299.152,297.432,-9.418599
12655,146786.4,299.142,297.611,-7.24141
12712,147447.6,299.145,297.742,-5.517441
12769,148108.8,299.131,297.8363,-4.20864
12826,148770,299.153,297.901,-3.08504
12883,149431.2,299.136,297.95,-2.47193
12940,150092.4,299.145,297.984,-1.88002
12997,150753.6,299.15,298.009,-1.512835
13054,151414.8,299.15,298.024,-1.182411
13111,152076,299.147,298.035,-0.970771
13168,152737.2,299.145,298.043,-0.857313
13225,153398.4,299.145,298.049,-0.746948
13282,154059.6,299.151,298.051,-0.636415
13339,154720.8,299.154,298.053,-0.552828
13396,155382,299.154,298.057,-0.572564
13453,156043.2,299.146,298.06,-0.603113
13510,156704.4,299.147,298.062,-0.471986
13567,157365.6,299.152,298.062,-0.219859
13624,158026.8,299.151,298.063,0.01682
13681,158688,299.155,298.064,0.123402
13738,159349.2,299.14,298.063,0.221919
13795,160010.4,299.147,298.061,0.386513
13852,160671.6,299.152,298.055,0.493443
13909,161332.8,299.156,298.056,0.434572
13966,161994,299.158,298.066,0.270146
14023,162655.2,299.143,298.065,0.415861
14080,163316.4,299.157,298.068,0.497041
14137,163977.6,299.14,298.071,0.464945
14194,164638.8,299.158,298.07,0.586115
14251,165300,299.161,298.077,0.440571
14308,165961.2,299.154,298.084,0.390452
14365,166622.4,299.152,298.092,0.388218
14422,167283.6,299.162,298.102,0.364187
14479,167944.8,299.151,298.114,0.263269
14536,168606,299.137,298.121,0.352166
14593,169267.2,299.153,298.119,0.606682
14650,169928.4,299.154,298.122,0.577162
14707,170589.6,299.163,298.13,0.460455
14764,171250.8,299.153,298.141,0.35216
14821,171912,299.153,298.149,0.386824
14878,172573.2,299.162,298.158,0.388365
14897,172793.6,299.162,298.162,0.33808