File: i_data_processed/old_wt%/26.96wt%_climb_proc.txt
 Index  Time(s)  Furnace Temperature(K)  Sample Temperature(K)  HeatFlow(mW)  Q_Corrected       Fc
  6001 101400.0              104.366             104.126     -1.186987    -0.702998      NaN
  6063 102447.8              104.496             104.254     -1.217315    -0.715201      NaN
  6125 103495.6              105.287             104.403     -1.438269    -0.952997      NaN
  6187 104543.4              107.366             104.992     -3.988725    -3.487772      NaN
  6249 105591.2              109.115             105.917     -5.537769    -5.034434      NaN
  6311 106639.0              110.864             107.069     -6.715806    -6.059931      NaN
  6373 107686.8              112.612             108.384     -7.607694    -6.699941      NaN
  6435 108734.6              114.362             109.816     -8.320730    -7.262716      NaN
  6497 109782.4              116.109             111.329     -8.923292    -7.763896      NaN
  6559 110830.2              117.858             112.903     -9.475878    -8.246402      NaN
  6621 111878.0              119.604             114.519    -10.0537    -8.772675      NaN
  6683 112925.8              121.348             116.162    -10.7462    -9.427341      NaN
  6745 113973.6              123.097             117.832    -11.9586   -10.6173      NaN
  6807 115021.4              124.847             119.514    -14.1252   -12.7729      NaN
  6869 116069.2              126.592             121.211    -17.1611   -15.8103      NaN
  6931 117117.0              128.335             122.914    -16.4772   -15.131      NaN
  6993 118164.8              130.077             124.628    -15.4267   -14.0867      NaN
  7055 119212.6              131.832             126.343    -15.3959   -14.058      NaN
  7117 120260.4              133.577             128.057    -15.3874   -14.0677      NaN
  7179 121308.2              135.306             129.781    -15.5112   -14.1998      NaN
  7241 122356.0              137.076             131.496    -15.5173   -14.2151      NaN
  7303 123403.8              138.812             133.221    -15.6249   -14.341      NaN
  7365 124451.6              140.552             134.947    -15.7077   -14.4447      NaN
  7427 125499.4              142.316             136.672    -15.7504   -14.4887      NaN
  7489 126547.2              144.041             138.405    -15.8017   -14.5647      NaN
  7551 127595.0              145.803             140.134    -15.4731   -14.2447      NaN
  7613 128642.8              147.551             141.869    -12.6933   -11.4699      NaN
  7675 129690.6              149.307             143.609      9.895843    11.1025      NaN
  7737 130738.4              151.029             145.371    150.519   151.705      NaN
  7799 131786.2              152.792             147.137     79.4855    80.6486      NaN
  7861 132834.0              154.531             148.878      2.783183     3.938347      NaN
  7923 133881.8              156.274             150.608     -8.232172    -7.118795      NaN
  7985 134929.6              158.032             152.341     -9.904835    -8.787704      NaN
  8047 135977.4              159.781             154.082    -10.4122    -9.314208      NaN
  8109 137025.2              161.524             155.828    -10.822    -9.763159      NaN
  8171 138073.0              163.269             157.576    -11.0425    -9.990920      NaN
  8233 139120.8              165.012             159.324    -11.2376   -10.2205      NaN
  8295 140168.6              166.76             161.073    -11.4763   -10.4936      NaN
  8357 141216.4              168.499             162.82    -11.9025   -10.9861      NaN
  8419 142264.2              170.25             164.568    -11.2864   -10.3627      NaN
  8481 143312.0              172.001             166.315    -11.6136   -10.7467      NaN
  8543 144359.8              173.749             168.064    -11.8701   -11.0631      NaN
  8605 145407.6              175.493             169.814    -12.1066   -11.3267      NaN
  8667 146455.4              177.237             171.566    -12.5133   -11.8396      NaN
  8729 147503.2              178.979             173.318    -12.6999   -12.0617      NaN
  8791 148551.0              180.736             175.069    -14.9376   -14.3403      NaN
  8853 149598.8              182.478             176.818   -109.718  -109.059 0.172866
  8915 150646.6              184.223             178.543   -225.449  -224.882 0.165039
  8977 151694.4              185.963             180.272   -170.96  -170.463 0.157045
  9039 152742.2              187.713             182.035    -26.1267   -25.6978 0.148718
  9101 153790.0              189.459             183.804    -22.255   -21.835 0.140175
  9163 154837.8              191.209             185.571    -22.4306   -22.0921 0.131436
  9225 155885.6              192.95             187.334    -22.6603   -22.2276 0.122494
  9287 156933.4              194.698             189.094    -23.1554   -22.8291 0.113331
  9349 157981.2              196.446             190.854    -23.4766   -23.1767 0.103911
  9411 159029.0              198.188             192.613    -23.7842   -23.7601 0.094222
  9473 160076.8              199.945             194.369    -24.3754   -24.247 0.084248
  9535 161124.6              201.683             196.129    -24.9073   -24.8433 0.073933
  9597 162172.4              203.43             197.882    -25.3149   -25.1502 0.063308
  9659 163220.2              205.178             199.639    -25.7614   -25.6563 0.052292
  9721 164268.0              206.922             201.399    -26.4264   -26.4879 0.040851
  9783 165315.8              208.67             203.157    -27.0174   -27.0198 0.028983
  9845 166363.6              210.415             204.912    -27.5743   -27.6448 0.016654
  9907 167411.4              212.165             206.669    -28.2608   -28.3064 0.003803
  9969 168459.2              213.916             208.425    -28.0219   -28.1847      NaN
 10031 169507.0              215.658             210.182    -22.5786   -22.7005      NaN
 10093 170554.8              217.401             211.94    -21.907   -22.0715      NaN
 10155 171602.6              219.145             213.699    -21.8927   -22.1717      NaN
 10217 172650.4              220.901             215.456    -21.9965   -22.0531      NaN
 10279 173698.2              222.639             217.214    -22.231   -22.5026      NaN
 10341 174746.0              224.389             218.97    -22.4102   -22.7214      NaN
 10403 175793.8              226.142             220.73    -22.5317   -22.9439      NaN
 10465 176841.6              227.879             222.492    -22.5624   -23.0189      NaN
 10527 177889.4              229.624             224.251    -22.7361   -23.1046      NaN
 10589 178937.2              231.377             226.01    -23.0333   -23.5083      NaN
 10651 179985.0              233.115             227.77    -23.3321   -23.611      NaN
 10713 181032.8              234.868             229.528    -23.2533   -23.6402      NaN
 10775 182080.6              236.615             231.286    -23.3185   -23.7523      NaN
 10837 183128.4              238.361             233.044    -23.3693   -23.7934      NaN
 10899 184176.2              240.107             234.805    -23.5336   -24.0014      NaN
 10961 185224.0              241.852             236.562    -23.6892   -23.9903      NaN
 11023 186271.8              243.599             238.322    -24.0715   -24.8981      NaN
 11085 187319.6              245.343             240.08    -24.0855   -24.4598      NaN
 11147 188367.4              247.09             241.837    -24.1548   -24.591      NaN
 11209 189415.2              248.837             243.593    -24.194   -24.5649      NaN
 11271 190463.0              250.583             245.351    -24.3332   -24.6546      NaN
 11333 191510.8              252.33             247.107    -24.5955   -25.0992      NaN
 11395 192558.6              254.075             248.863    -24.7824   -25.1875      NaN
 11457 193606.4              255.822             250.618    -24.934   -25.451      NaN
 11519 194654.2              257.57             252.374    -24.9219   -25.2002      NaN
 11581 195702.0              259.314             254.129    -25.1598   -25.5015      NaN
 11643 196749.8              261.061             255.884    -25.3785   -25.9301      NaN
 11705 197797.6              262.807             257.639    -25.4484   -25.8725      NaN
 11767 198845.4              264.553             259.393    -25.6765   -26.1177      NaN
 11829 199893.2              266.299             261.147    -25.8408   -26.3657      NaN
 11891 200941.0              268.046             262.9    -25.92   -26.3375      NaN
 11953 201988.8              269.792             264.653    -26.1759   -26.6643      NaN
 12015 203036.6              271.533             266.406    -26.3802   -26.9301      NaN
 12077 204084.4              273.286             268.155    -26.5586   -26.9642      NaN
 12139 205132.2              275.032             269.904    -26.7415   -27.2286      NaN
 12201 206180.0              276.782             271.658    -26.9313   -27.4506      NaN
 12263 207227.8              278.526             273.414    -27.1762   -27.6839      NaN
 12325 208275.6              280.27             275.171    -27.3165   -27.8486      NaN
 12387 209323.4              282.018             276.926    -27.3693   -27.8318      NaN
 12449 210371.2              283.761             278.683    -27.552   -28.014      NaN
 12511 211419.0              285.508             280.435    -27.623   -28.0999      NaN
 12573 212466.8              287.252             282.186    -27.6463   -28.1372      NaN
 12635 213514.6              289.005             283.933    -27.7369   -28.2349      NaN
 12697 214562.4              290.751             285.687    -27.9548   -28.499      NaN
 12759 215610.2              292.492             287.438    -28.0348   -28.6103      NaN
 12821 216658.0              294.239             289.186    -28.1405   -28.7319      NaN
 12883 217705.8              295.988             290.933    -28.1913   -28.8454      NaN
 12900 217993.1              296.468             291.412    -28.1946   -28.8722      NaN