File: archive/0.25Kmin_wrong_wt%/data/0wt%_climb_proc.txt
 Index  Time(s)  Furnace Temperature(K)  Sample Temperature(K)  HeatFlow(mW)  Q_Corrected  Fc
  8501  98600.0              127.951             118.226    -16.5424   -14.0644 NaN
  8532  98959.6              129.453             119.317    -17.431   -14.8896 NaN
  8563  99319.2              130.952             120.451    -18.2465   -15.6299 NaN
  8594  99678.8              132.453             121.623    -18.9821   -16.3192 NaN
  8625 100038.4              133.952             122.828    -19.6718   -16.9647 NaN
  8656 100398.0              135.452             124.065    -20.3095   -17.5692 NaN
  8687 100757.6              136.952             125.329    -20.9215   -18.1366 NaN
  8718 101117.2              138.449             126.618    -21.4733   -18.6611 NaN
  8749 101476.8              139.932             127.926    -21.9756   -19.1536 NaN
  8780 101836.4              141.434             129.251    -22.4074   -19.581 NaN
  8811 102196.0              142.942             130.594    -22.8612   -20.0114 NaN
  8842 102555.6              144.444             131.953    -23.2844   -20.4139 NaN
  8873 102915.2              145.94             133.327    -23.6998   -20.8219 NaN
  8904 103274.8              147.444             134.714    -24.0813   -21.1874 NaN
  8935 103634.4              148.955             136.115    -24.4634   -21.59 NaN
  8966 103994.0              150.45             137.527    -24.8491   -21.9714 NaN
  8997 104353.6              151.941             138.949    -25.1958   -22.3342 NaN
  9028 104713.2              153.427             140.377    -25.505   -22.6335 NaN
  9059 105072.8              154.931             141.811    -25.7911   -22.9312 NaN
  9090 105432.4              156.438             143.253    -26.0851   -23.225 NaN
  9121 105792.0              157.941             144.702    -26.3798   -23.5258 NaN
  9152 106151.6              159.436             146.159    -26.6708   -23.8266 NaN
  9183 106511.2              160.927             147.62    -26.9333   -24.1026 NaN
  9214 106870.8              162.43             149.085    -27.1882   -24.3696 NaN
  9245 107230.4              163.931             150.555    -27.4449   -24.6474 NaN
  9276 107590.0              165.424             152.03    -27.688   -24.9031 NaN
  9307 107949.6              166.927             153.505    -27.9323   -25.1669 NaN
  9338 108309.2              168.427             154.985    -28.1651   -25.4057 NaN
  9369 108668.8              169.925             156.467    -28.4031   -25.6848 NaN
  9400 109028.4              171.42             157.954    -28.6274   -25.9338 NaN
  9431 109388.0              172.92             159.439    -28.8432   -26.1752 NaN
  9462 109747.6              174.419             160.93    -29.0715   -26.4433 NaN
  9493 110107.2              175.911             162.421    -29.2771   -26.6604 NaN
  9524 110466.8              177.412             163.912    -29.497   -26.9285 NaN
  9555 110826.4              178.914             165.405    -29.7071   -27.1747 NaN
  9586 111186.0              180.414             166.901    -29.9323   -27.4351 NaN
  9617 111545.6              181.909             168.4    -30.1502   -27.6751 NaN
  9648 111905.2              183.409             169.899    -30.3724   -27.9217 NaN
  9679 112264.8              184.907             171.4    -30.6035   -28.1942 NaN
  9710 112624.4              186.405             172.906    -30.8385   -28.4761 NaN
  9741 112984.0              187.901             174.412    -31.0615   -28.6997 NaN
  9772 113343.6              189.402             175.919    -31.2909   -29.0073 1.0
  9803 113703.2              190.901             177.429    -31.5215   -29.2793 1.0
  9834 114062.8              192.396             178.941    -31.7382   -29.5546 1.0
  9865 114422.4              193.894             180.454    -31.9647   -29.8385 1.0
  9896 114782.0              195.395             181.968    -32.1807   -30.1024 1.0
  9927 115141.6              196.894             183.484    -32.3967   -30.3292 1.0
  9958 115501.2              198.392             185.001    -32.6189   -30.5846 1.0
  9989 115860.8              199.889             186.519    -32.8269   -30.8619 1.0
 10020 116220.4              201.388             188.037    -33.0193   -31.0832 1.0
 10051 116580.0              202.887             189.557    -33.2246   -31.3454 1.0
 10082 116939.6              204.385             191.077    -33.4374   -31.5268 1.0
 10113 117299.2              205.883             192.599    -33.65   -31.9208 1.0
 10144 117658.8              207.383             194.121    -33.8719   -32.1723 1.0
 10175 118018.4              208.882             195.645    -34.0786   -32.2916 1.0
 10206 118378.0              210.38             197.168    -34.3151   -32.6859 1.0
 10237 118737.6              211.876             198.694    -34.4677   -32.7836 1.0
 10268 119097.2              213.371             200.217    -34.712   -33.0519 1.0
 10299 119456.8              214.871             201.74    -34.8665   -33.2128 1.0
 10330 119816.4              216.372             203.265    -35.1264   -33.5042 1.0
 10361 120176.0              217.87             204.79    -35.3219   -33.8425 1.0
 10392 120535.6              219.37             206.315    -35.4967   -34.2261 1.0
 10423 120895.2              220.864             207.841    -35.7093   -34.2699 1.0
 10454 121254.8              222.361             209.366    -35.8108   -34.3113 1.0
 10485 121614.4              223.863             210.891    -36.0862   -34.5958 1.0
 10516 121974.0              225.367             212.417    -36.295   -34.9918 1.0
 10547 122333.6              226.859             213.944    -36.5987   -35.072 1.0
 10578 122693.2              228.357             215.469    -36.8285   -35.5901 1.0
 10609 123052.8              229.855             216.996    -36.9422   -35.738 1.0
 10640 123412.4              231.354             218.522    -37.1077   -35.8401 1.0
 10671 123772.0              232.853             220.048    -37.3839   -36.3152 1.0
 10702 124131.6              234.354             221.574    -37.5794   -36.4477 1.0
 10733 124491.2              235.852             223.101    -37.7295   -36.7799 1.0
 10764 124850.8              237.354             224.628    -38.0094   -37.0959 1.0
 10795 125210.4              238.851             226.158    -38.2119   -37.3147 1.0
 10826 125570.0              240.344             227.685    -38.4026   -37.59 1.0
 10857 125929.6              241.844             229.214    -38.6985   -37.6582 1.0
 10888 126289.2              243.341             230.74    -38.9151   -37.8906 1.0
 10919 126648.8              244.839             232.268    -39.0173   -38.1014 1.0
 10950 127008.4              246.339             233.794    -39.2551   -38.3741 1.0
 10981 127368.0              247.836             235.32    -39.4908   -38.7559 1.0
 11012 127727.6              249.336             236.849    -39.6861   -38.9418 1.0
 11043 128087.2              250.836             238.376    -40.0061   -39.2084 1.0
 11074 128446.8              252.334             239.904    -40.2364   -39.586 1.0
 11105 128806.4              253.834             241.431    -40.412   -40.1696 1.0
 11136 129166.0              255.337             242.959    -40.5415   -39.9962 1.0
 11167 129525.6              256.834             244.489    -40.9059   -40.2888 1.0
 11198 129885.2              258.327             246.018    -41.129   -40.8461 1.0
 11229 130244.8              259.826             247.546    -41.3155   -41.1543 1.0
 11260 130604.4              261.322             249.076    -41.5405   -41.2833 1.0
 11291 130964.0              262.819             250.603    -41.7265   -41.5594 1.0
 11322 131323.6              264.32             252.13    -41.9616   -41.7295 1.0
 11353 131683.2              265.818             253.657    -42.1839   -41.9694 1.0
 11384 132042.8              267.321             255.185    -42.4678   -42.4434 1.0
 11415 132402.4              268.816             256.712    -42.753   -42.8364 1.0
 11446 132762.0              270.313             258.24    -42.9288   -43.1858 1.0
 11477 133121.6              271.81             259.767    -43.2202   -43.5801 1.0
 11508 133481.2              273.308             261.293    -43.4675   -44.0869 1.0
 11539 133840.8              274.808             262.819    -43.7541   -44.6137 1.0
 11570 134200.4              276.308             264.344    -44.0216   -44.9638 1.0
 11601 134560.0              277.807             265.871    -44.3397   -45.0632 1.0
 11632 134919.6              279.304             267.397    -44.6593   -45.5719 1.0
 11663 135279.2              280.8             268.922    -44.9942   -45.6168 1.0
 11694 135638.8              282.302             270.447    -45.3909   -46.1824 1.0
 11725 135998.4              283.8             271.972    -45.8562   -46.5459 1.0
 11756 136358.0              285.297             273.498    -46.6382   -47.6603 NaN
 11787 136717.6              286.796             275.023   -128.834  -129.479 NaN
 11818 137077.2              288.296             276.534   -381.597  -382.669 NaN
 11849 137436.8              289.79             278.033   -629.137  -629.925 NaN
 11880 137796.4              291.288             279.521   -830.956  -832.063 NaN
 11911 138156.0              292.79             281.005   -977.226  -978.317 NaN
 11942 138515.6              294.287             282.487  -1044.45 -1045.47 NaN
 11973 138875.2              295.778             283.979   -847.274  -848.635 NaN
 12004 139234.8              297.28             285.493   -396.977  -398.29 NaN
 12035 139594.4              298.778             287.028   -191.138  -192.522 NaN
 12066 139954.0              299.297             288.53   -123.732  -125.153 NaN
 12097 140313.6              299.213             289.849    -97.982   -99.483 NaN
 12100 140348.4              299.209             289.966    -96.2571   -97.8191 NaN