File: archive/0.25Kmin_wrong_wt%/data/6wt%_climb_proc.txt
 Index  Time(s)  Furnace Temperature(K)  Sample Temperature(K)  HeatFlow(mW)  Q_Corrected       Fc
  8501  98600.0              127.957             117.924    -17.6184   -15.1404      NaN
  8533  98971.2              129.505             119.086    -18.8942   -16.3506      NaN
  8565  99342.4              131.051             120.289    -20.4432   -17.8303      NaN
  8597  99713.6              132.602             121.53    -22.4003   -19.7274      NaN
  8629 100084.8              134.147             122.802    -24.3962   -21.6758      NaN
  8661 100456.0              135.691             124.104    -24.7393   -21.9898      NaN
  8693 100827.2              137.241             125.432    -24.3614   -21.5743      NaN
  8725 101198.4              138.791             126.783    -24.6312   -21.8198      NaN
  8757 101569.6              140.337             128.156    -25.0976   -22.2599      NaN
  8789 101940.8              141.88             129.547    -25.5947   -22.7451      NaN
  8821 102312.0              143.432             130.953    -26.0595   -23.2044      NaN
  8853 102683.2              144.978             132.376    -26.5257   -23.6537      NaN
  8885 103054.4              146.52             133.812    -26.9091   -24.0377      NaN
  8917 103425.6              148.064             135.257    -27.2619   -24.3815      NaN
  8949 103796.8              149.62             136.714    -27.6191   -24.7359      NaN
  8981 104168.0              151.169             138.18    -27.9733   -25.0937      NaN
  9013 104539.2              152.708             139.657    -28.3144   -25.4402      NaN
  9045 104910.4              154.247             141.138    -28.5958   -25.7312      NaN
  9077 105281.6              155.799             142.626    -28.8816   -26.0257      NaN
  9109 105652.8              157.354             144.121    -29.1637   -26.3106      NaN
  9141 106024.0              158.902             145.623    -29.467   -26.6292      NaN
  9173 106395.2              160.441             147.13    -29.6629   -26.8273      NaN
  9205 106766.4              161.992             148.641    -29.6348   -26.816      NaN
  9237 107137.6              163.545             150.156    -29.0329   -26.2339      NaN
  9269 107508.8              165.094             151.676    -27.1034   -24.3021      NaN
  9301 107880.0              166.632             153.201    -22.2627   -19.5008      NaN
  9333 108251.2              168.176             154.728    -11.1727    -8.422141      NaN
  9365 108622.4              169.727             156.258     10.8292    13.5512      NaN
  9397 108993.6              171.27             157.793     36.556    39.2498      NaN
  9429 109364.8              172.819             159.328     32.2477    34.9119      NaN
  9461 109736.0              174.368             160.865      3.238774     5.871963      NaN
  9493 110107.2              175.913             162.401    -15.7655   -13.1488      NaN
  9525 110478.4              177.465             163.938    -23.7548   -21.1889      NaN
  9557 110849.6              179.008             165.478    -26.94   -24.4079      NaN
  9589 111220.8              180.559             167.019    -28.3673   -25.8714      NaN
  9621 111592.0              182.107             168.564    -29.2956   -26.8219      NaN
  9653 111963.2              183.647             170.111    -31.4551   -28.9976      NaN
  9685 112334.4              185.197             171.658    -62.6862   -60.2838      NaN
  9717 112705.6              186.744             173.207    -22.2046   -19.8209      NaN
  9749 113076.8              188.287             174.766     -2.386414    -0.057209      NaN
  9781 113448.0              189.835             176.322    -27.96   -25.7035 0.816415
  9813 113819.2              191.386             177.875   -154.451  -152.23 0.814856
  9845 114190.4              192.931             179.423   -192.322  -190.134 0.813276
  9877 114561.6              194.472             180.983    -71.1983   -69.0798 0.811656
  9909 114932.8              196.022             182.547    -45.3686   -43.3015 0.810000
  9941 115304.0              197.574             184.113    -39.7469   -37.7241 0.808307
  9973 115675.2              199.116             185.682    -38.7479   -36.7655 0.806576
 10005 116046.4              200.662             187.25    -38.8032   -36.9166 0.804806
 10037 116417.6              202.212             188.82    -39.1314   -37.1508 0.802991
 10069 116788.8              203.758             190.391    -39.4978   -37.5743 0.801131
 10101 117160.0              205.303             191.962    -39.905   -38.1001 0.799222
 10133 117531.2              206.85             193.534    -40.3223   -38.5718 0.797261
 10165 117902.4              208.393             195.106    -40.7279   -38.9284 0.795245
 10197 118273.6              209.944             196.678    -41.1968   -39.5525 0.793170
 10229 118644.8              211.496             198.252    -41.6478   -40.084 0.791028
 10261 119016.0              213.042             199.827    -42.1218   -40.4345 0.788817
 10293 119387.2              214.584             201.403    -42.6739   -41.019 0.786533
 10325 119758.4              216.128             202.979    -43.1484   -41.5196 0.784169
 10357 120129.6              217.677             204.554    -43.6719   -42.1369 0.781723
 10389 120500.8              219.224             206.131    -44.2496   -43.0184 0.779184
 10421 120872.0              220.768             207.708    -44.8176   -43.4019 0.776546
 10453 121243.2              222.319             209.282    -45.4789   -43.9925 0.773806
 10485 121614.4              223.866             210.86    -46.1077   -44.6174 0.770946
 10517 121985.6              225.406             212.436    -46.7888   -45.4897 0.767965
 10549 122356.8              226.957             214.012    -47.5586   -46.0295 0.764850
 10581 122728.0              228.503             215.588    -48.3284   -47.1222 0.761588
 10613 123099.2              230.047             217.165    -49.1531   -47.8938 0.758165
 10645 123470.4              231.597             218.739    -49.9808   -48.7709 0.754572
 10677 123841.6              233.144             220.315    -50.8458   -49.7404 0.750784
 10709 124212.8              234.692             221.891    -51.8431   -50.8404 0.746785
 10741 124584.0              236.24             223.468    -52.9149   -52.0173 0.742551
 10773 124955.2              237.787             225.045    -54.1348   -53.2426 0.738060
 10805 125326.4              239.333             226.623    -55.335   -54.3844 0.733280
 10837 125697.6              240.873             228.2    -56.6463   -55.7997 0.728184
 10869 126068.8              242.421             229.774    -58.0434   -57.0093 0.722741
 10901 126440.0              243.967             231.349    -59.7334   -58.8591 0.716900
 10933 126811.2              245.514             232.923    -61.4683   -60.5781 0.710610
 10965 127182.4              247.064             234.496    -63.3623   -62.6142 0.703820
 10997 127553.6              248.602             236.07    -65.4965   -64.8332 0.696448
 11029 127924.8              250.153             237.642    -67.7715   -66.8364 0.688428
 11061 128296.0              251.694             239.213    -70.4435   -69.656 0.679658
 11093 128667.2              253.238             240.78    -73.2755   -72.8094 0.670047
 11125 129038.4              254.794             242.348    -76.5025   -76.106 0.659423
 11157 129409.6              256.334             243.914    -80.1949   -79.5508 0.647643
 11189 129780.8              257.89             245.48    -84.4871   -84.3066 0.634502
 11221 130152.0              259.426             247.047    -89.4495   -89.1333 0.619744
 11253 130523.2              260.976             248.611    -95.0766   -94.8393 0.603091
 11285 130894.4              262.534             250.177   -101.721  -101.534 0.584147
 11317 131265.6              264.076             251.745   -109.508  -109.366 0.562423
 11349 131636.8              265.622             253.313   -118.689  -118.51 0.537362
 11381 132008.0              267.164             254.88   -129.341  -129.185 0.508224
 11413 132379.2              268.7             256.443   -141.937  -142.032 0.474095
 11445 132750.4              270.26             258.005   -157.012  -157.29 0.433556
 11477 133121.6              271.788             259.564   -175.498  -175.858 0.384863
 11509 133492.8              273.346             261.119   -197.587  -198.266 0.325389
 11541 133864.0              274.895             262.674   -224.034  -224.902 0.250829
 11573 134235.2              276.427             264.225   -255.478  -256.501 0.154768
 11605 134606.4              277.993             265.775   -291.66  -292.485 0.025199
 11637 134977.6              279.531             267.323   -319.281  -320.111      NaN
 11669 135348.8              281.088             268.873   -339.563  -340.122      NaN
 11701 135720.0              282.651             270.429   -320.858  -321.434      NaN
 11733 136091.2              284.169             271.99   -303.239  -303.959      NaN
 11765 136462.4              285.716             273.546   -225.189  -226.114      NaN
 11797 136833.6              287.274             275.111   -127.852  -128.403      NaN
 11829 137204.8              288.813             276.677    -97.409   -98.405      NaN
 11861 137576.0              290.375             278.246    -87.9076   -89.1857      NaN
 11893 137947.2              291.925             279.818    -85.0889   -86.0966      NaN
 11925 138318.4              293.476             281.393    -84.311   -85.4385      NaN
 11957 138689.6              295.01             282.969    -84.184   -85.6242      NaN
 11989 139060.8              296.557             284.542    -84.0895   -85.467      NaN
 12021 139432.0              298.081             286.112    -84.0103   -85.3835      NaN
 12053 139803.2              299.288             287.668    -83.7135   -85.2201      NaN
 12085 140174.4              299.227             289.084    -81.5904   -82.8773      NaN
 12100 140348.4              299.21             289.679    -79.0115   -80.5735      NaN