File: z_unorganized_archive/i_data/0.10Kmin/mean_H2O-NH3_3.7778g.csv
Index,Time(s),Furnace Temperature(K),Sample Temperature(K),HeatFlow(mW),T(K),Sample Temperature(K)_2
71.0,1183.0,298.399,299.0,17.2913,299.0,298.895
11149.7,188412,297.832,297.0,-5.29392,297.0,297.063
9831.5,166135,295.863,295.0,-8.66916,295.0,295.014
9586.71,161999,293.846,293.0,-4.92603,293.0,293.009
9734.25,164492,291.764,291.0,-3.46906,291.0,291
9886.28,167061,289.84,289.0,-3.02145,289.0,289.005
10043.7,169722,288.005,287.0,-3.33087,287.0,287.004
9933.56,167860,285.826,285.0,-1.58871,285.0,285.003
9882.78,167002,283.754,283.0,-0.716618,283.0,283.005
9832.0,166143.9,281.705,281.0,-0.185155,281.0,281.002
9781.22,165286,279.666,279.0,0.202519,279.0,278.99
9996.6,168925.64,278.104,277.0,-2.28617,277.0,276.997
9680.22,163579,275.664,275.0,0.641342,275.0,275.003
9686.76,163689,273.762,273.0,0.152437,273.0,272.997
9786.05,165367,272.037,271.0,-1.34782,271.0,271.006
9528.44,161014,269.697,269.0,0.88453,269.0,269.008
9477.67,160156,267.702,267.0,0.881765,267.0,267.006
9233.89,156036,265.378,265.0,2.9644,265.0,264.994
9431.46,159375,263.839,263.0,0.207823,263.0,262.995
9136.41,154388,261.451,261.0,2.64121,261.0,261.001
9275.78,156744,259.821,259.0,0.418928,259.0,259.003
9095.04,153689,257.622,257.0,1.5367,257.0,256.998
8990.17,151917,255.574,255.0,1.99081,255.0,255.011
8941.41,151093,253.609,253.0,1.73646,253.0,252.996
8947.87,151202,251.756,251.0,0.813954,251.0,251
8671.79,146536,249.406,249.0,2.75565,249.0,249.003
8624.79,145742,247.451,247.0,2.36407,247.0,246.991
8578.53,144960,245.513,245.0,2.06721,245.0,245.009
8531.79,144170,243.541,243.0,1.59196,243.0,242.991
8540.25,144313,241.692,241.0,0.839928,241.0,240.992
8439.04,142603,239.655,239.0,1.14154,239.0,239.001
8446.75,142733,237.791,237.0,0.24203,237.0,236.997
8346.81,141044,235.743,235.0,0.467632,235.0,235
8201.67,138591,233.618,233.0,1.08561,233.0,233.001
8102.44,136914,231.574,231.0,1.344779,231.0,231
7968.98,134658.862,229.474,229.0,1.9019,229.0,228.999
7870.71,132998,227.426,227.0,1.81299,227.0,227.001
7882.58,133198.702,225.587,225.0,1.10131,225.0,225.008
7785.71,131562,223.539,223.0,1.16627,223.0,223.007
7665.0,129522,221.452,221.0,1.52094,221.0,221.003
7569.4,127905.96,219.405,219.0,1.74942,219.0,219
7711.74,130312,217.78,217.0,-0.341341,217.0,217
7488.4,126537,215.514,215.0,0.967245,215.0,215.009
7448.0,125854.3,213.549,213.0,0.401604,213.0,212.99
7408.3,125183.37,211.611,211.0,0.0991569,211.0,211.001
7248.14,122477,209.431,209.0,-2.41474,209.0,208.991
7210.14,121834,207.493,207.0,-4.24508,207.0,207.005
7059.02,119280.525,205.339,205.0,-3.32979,205.0,205.001
7184.58,121402,203.694,203.0,-4.62363,203.0,203
6880.49,116263,201.261,201.0,-2.24656,201.0,201
6897.5,116550.85,199.429,199.0,-2.85452,199.0,198.996
6811.15,115092,197.384,197.0,-2.57459,197.0,197.007
6776.49,114506,195.446,195.0,-2.78767,195.0,195.002
6646.43,112308,193.326,193.0,-1.88065,193.0,193.001
6613.78,111756,191.402,191.0,-2.09623,191.0,190.991
6491.45,109689,189.303,189.0,-1.54331,189.0,189.006
6460.82,109171,187.35,187.0,-1.87122,187.0,186.988
6430.82,108664,185.446,185.0,-2.12347,185.0,185.003
6317.875,106755,183.359,183.0,-2.07406,183.0,183.006
6210.74,104945,181.288,181.0,-30.0644,181.0,181.008
6308.53,106597,179.558,179.0,-135.9,179.0,179.002
6203.19,104817,177.452,177.0,-66.6166,177.0,176.996
6103.93,103140,175.368,175.0,5.31127,175.0,174.995
5964.31,100780,173.211,173.0,11.0888,173.0,173.001
5941.71,100398,171.288,171.0,12.0293,171.0,170.996
5919.53,100023,169.35,169.0,11.4525,169.0,168.997
5834.58,98587.6,167.278,167.0,9.84598,167.0,166.994
5798.02,97969.6,165.307,165.0,7.39726,165.0,164.999
5722.0,96684.9,163.295,163.0,5.41863,163.0,163.009
5705.0,96397.6,161.308,161.0,4.25296,161.0,160.999
5741.85,97020.4,159.305,159.0,3.63971,159.0,159.001
5892.41,99564.8,157.369,157.0,3.28771,157.0,157.005
6051.64,102256,155.385,155.0,3.34482,155.0,155.002
6020.29,101726,153.249,153.0,4.34989,153.0,152.998
5952.82,100586,151.174,151.0,5.42837,151.0,151.007
5896.47,99633.5,149.147,149.0,11.9923,149.0,149.003
5832.0,98543.9,147.114,147.0,70.3898,147.0,146.998
5804.0,98070.7,145.191,145.0,77.2611,145.0,144.999
5754.67,97237.1,143.235,143.0,8.32486,143.0,142.995
5642.86,95347.5,141.101,141.0,0.994718,141.0,140.996
5650.03,95468.7,139.271,139.0,-0.366547,139.0,139.002
5531.74,93469.5,137.185,137.0,-0.154681,137.0,137.001
5467.24,92379.5,135.146,135.0,-0.403028,135.0,134.993
5368.31,90707.6,133.069,133.0,-0.191059,133.0,133.008
5352.31,90437.2,131.156,131.0,-0.562022,131.0,131.001
5232.9,88419,129.105,129.0,-0.421245,129.0,128.989
5103.46,86231.7,127.017,127.0,-0.334622,127.0,126.993
4999.04,84466.9,125.014,125.0,-0.558933,125.0,125
4921.14,83150.3,123.018,123.0,-1.21454,123.0,122.994
4770.86,80610.7,120.945,121.0,-1.28475,121.0,120.995
4701.55,79439.3,118.952,119.0,-0.372935,119.0,118.996
4704.74,79493.1,116.936,117.0,-0.0626306,117.0,116.994
4673.32,78962.2,114.914,115.0,0.158251,115.0,114.999
4663.56,78797.3,112.901,113.0,-0.23015,113.0,113.002
4729.65,79914.1,110.871,111.0,-0.296783,111.0,110.997
4826.1,81544.2,108.851,109.0,-0.3172,109.0,108.989
5023.71,84883.9,106.869,107.0,-0.401819,107.0,106.984
5266.22,88982.2,104.843,105.0,-0.314215,105.0,104.969
5598.5,94597.7,103.752,104.0,-0.494568,104.0,103.905