File: z_unorganized_archive/i_data/0.10Kmin/mean_H2O-NH3_4.5202g.csv
Index,Time(s),Furnace Temperature(K),Sample Temperature(K),HeatFlow(mW),T(K),Sample Temperature(K)_2
59.5,988.65,298.47,299.0,40.7308,299.0,298.579
13580.6,229495,299.028,298.0,0.306151,298.0,298.06
10884.6,183933,297.839,297.0,-5.88402,297.0,297.064
10060.4,170003,296.744,296.0,-8.65717,296.0,296.038
9524.97,160955,295.703,295.0,-8.90559,295.0,295.028
9317.87,157455.025,294.796,294.0,-6.43169,294.0,294.003
9331.29,157682,293.626,293.0,-4.33898,293.0,292.993
9567.69,161677,292.755,292.0,-4.47107,292.0,291.992
9670.66,163417,291.776,291.0,-4.05096,291.0,290.994
9714.0,164149.7,290.749,290.0,-3.34187,290.0,289.994
9826.07,166044,289.846,289.0,-3.49,289.0,288.994
9802.07,165638,288.787,288.0,-2.54598,288.0,288.008
9840.79,166292,287.81,287.0,-2.33231,287.0,287.006
9753.3,164814,286.655,286.0,-0.954583,286.0,285.999
9729.3,164408,285.609,285.0,-0.296629,285.0,284.999
9971.41,168500,284.977,284.0,-2.71034,284.0,283.998
9886.78,167070,283.865,283.0,-1.68611,283.0,283.004
9717.62,164211,282.608,282.0,0.286621,282.0,281.999
9836.22,166215,281.806,281.0,-1.04501,281.0,280.991
9811.22,165793,280.803,280.0,-0.839154,280.0,280.005
9843.98,166346,279.886,279.0,-1.33205,279.0,279.006
9557.83,161510,278.446,278.0,1.91797,278.0,277.996
9735.67,164516,277.77,277.0,-0.362676,277.0,276.996
9767.76,165058,276.861,276.0,-0.932933,276.0,275.995
9684.89,163658,275.765,275.0,-0.142411,275.0,274.996
9659.89,163235,274.777,274.0,-0.108148,274.0,274.007
9691.33,163767,273.876,273.0,-0.710559,273.0,273.008
9411.11,159031,272.446,272.0,2.4647,272.0,271.999
9640.33,162905,271.867,271.0,-0.595095,271.0,270.991
9558.56,161523,270.781,270.0,0.157936,270.0,269.994
9533.56,161100,269.808,269.0,0.0453812,269.0,269.007
9313.63,157383,268.492,268.0,2.42784,268.0,268.01
9538.89,161190,267.915,267.0,-0.715661,267.0,267.004
9264.63,156555,266.5,266.0,2.18361,266.0,265.998
9433.22,159405,265.855,265.0,-0.375835,265.0,265.001
9216.39,155740,264.547,264.0,1.43525,264.0,264.004
9437.67,159480,263.976,263.0,-5.72544,263.0,263
9167.39,154912,262.571,262.0,-21.158,262.0,261.998
9143.39,154506,261.588,261.0,-48.1244,261.0,260.999
9175.83,155055,260.695,260.0,-62.105,260.0,259.993
9282.56,156858,259.944,259.0,-64.5269,259.0,259
9126.36,154219,258.736,258.0,-57.0305,258.0,258.008
9045.63,152854,257.655,257.0,-50.403,257.0,257.007
9077.13,153387,256.769,256.0,-46.0882,256.0,256.006
8819.96,149040,255.377,255.0,-37.1479,255.0,254.996
8973.11,151629,254.701,254.0,-35.927,254.0,253.997
9003.89,152149,253.82,253.0,-32.951,253.0,253.001
8749.7,147853,252.437,252.0,-25.9127,252.0,251.993
8900.59,150403,251.765,251.0,-25.6733,251.0,250.998
8703.45,147071,250.492,250.0,-20.3282,250.0,250.004
8906.66,150506,249.903,249.0,-21.236,249.0,249.002
8656.45,146277,248.527,248.0,-15.7095,248.0,248.002
8633.45,145888,247.547,247.0,43.7533,247.0,247.005
8666.0,146438.5,246.66,246.0,150.273,246.0,246.004
8586.7,145098,245.577,245.0,123.53,245.0,245.005
8618.75,145639.975,244.696,244.0,83.4896,244.0,244.005
8379.19,141591,243.329,243.0,62.5401,243.0,242.995
8517.21,143924,242.632,242.0,36.5697,242.0,241.998
8548.5,144452.75,241.751,241.0,23.0955,241.0,241.001
8311.92,140454,240.398,240.0,19.9708,240.0,239.996
8447.72,142750,239.712,239.0,11.794,239.0,239.001
8267.65,139706,238.46,238.0,11.3345,238.0,238.007
8301.02,140270,237.572,237.0,8.0782,237.0,236.997
8222.92,138950,236.488,236.0,7.69519,236.0,235.987
8355.74,141195,235.793,235.0,4.56686,235.0,235.001
8233.22,139125,234.64,234.0,4.99992,234.0,234.009
8008.86,135333,233.299,233.0,6.88911,233.0,232.995
8134.19,137451,232.585,232.0,4.39354,232.0,231.992
8112.19,137079,231.616,231.0,3.73957,231.0,231.004
8143.69,137612,230.745,230.0,2.60738,230.0,230.006
7923.29,133887,229.412,229.0,4.64244,229.0,229
7902.29,133532,228.431,228.0,4.08387,228.0,227.998
7881.29,133177,227.46,227.0,3.60082,227.0,226.998
8054.69,136107,226.839,226.0,1.25008,226.0,225.999
7838.29,132450,225.515,225.0,3.14326,225.0,225.004
7682.4,129815.66,224.297,224.0,4.26259,224.0,224.002
7849.94,132647.086,223.65,223.0,2.12521,223.0,222.992
7774.86,131378,222.584,222.0,2.38612,222.0,221.994
7621.1,128779.69,221.373,221.0,3.30244,221.0,220.999
7733.14,130673,220.648,220.0,1.56472,220.0,220.006
7634.59,129008,219.534,219.0,1.98491,219.0,219.006
7560.1,127749,218.461,218.0,2.28522,218.0,217.999
7540.1,127411,217.494,217.0,2.12086,217.0,217.004
7573.0,127966.8,216.614,216.0,1.33034,216.0,216.003
7376.0,124637.5,215.315,215.0,2.45225,215.0,214.995
7479.7,126390.03,214.573,214.0,1.06647,214.0,214
7337.69,123990,213.391,213.0,1.81511,213.0,213.005
7371.73,124565,212.507,212.0,1.28179,212.0,211.994
7299.0,123336,211.435,211.0,1.42246,211.0,210.986
7280.0,123015,210.47,210.0,1.38569,210.0,209.992
7261.0,122694,209.51,209.0,1.0468,209.0,209.002
7181.06,121343,208.425,208.0,1.36281,208.0,207.997
7222.63,122046,207.563,207.0,0.700624,207.0,206.994
7091.08,119822,206.398,206.0,1.18828,206.0,206.005
7125.09,120397,205.52,205.0,0.752577,205.0,205
7054.4,119202.525,204.455,204.0,1.00646,204.0,203.998
6930.11,117102,203.296,203.0,1.55289,203.0,203
7018.73,118599.65,202.529,202.0,0.579029,202.0,202.006
6947.5,117395.85,201.464,201.0,0.669515,201.0,201.005
6878.11,116223,200.398,200.0,0.727415,200.0,199.999
6861.11,115936,199.443,199.0,0.561654,199.0,199.008
6796.62,114846,198.389,198.0,0.751868,198.0,198.002
6728.37,113693,197.321,197.0,0.738685,197.0,196.991
6712.37,113422,196.359,196.0,0.456651,196.0,195.995
6746.93,114006,195.485,195.0,-0.0941809,195.0,194.992
6679.72,112870,194.424,194.0,0.132612,194.0,193.992
6571.45,111041,193.287,193.0,0.544045,193.0,192.997
6648.07,112336,192.501,192.0,-0.210969,192.0,192.005
6503.95,109900,191.295,191.0,0.516322,191.0,191
6525.82,110269,190.391,190.0,0.116216,190.0,189.99
6510.82,110016,189.443,189.0,-0.233574,189.0,189.004
6410.0,108312,188.332,188.0,0.252082,188.0,188.013
6363.5,107526.25,187.3,187.0,0.172864,187.0,187.001
6381.75,107835,186.39,186.0,-0.0420831,186.0,185.994
6286.82,106230,185.281,185.0,0.419732,185.0,185
6322.36,106831,184.405,184.0,-0.16859,184.0,183.993
6260.21,105781,183.348,183.0,-0.125397,183.0,182.992
6170.91,104272,182.245,182.0,0.0160742,182.0,181.995
6234.6,105348,181.436,181.0,-0.595027,181.0,181.004
6121.9,103443.21,180.278,180.0,-1.62911,180.0,180
6134.31,103653,179.355,179.0,-16.8587,179.0,178.992
6051.0,102245.0,178.262,178.0,-85.6868,178.0,178.002
6086.7,102848.33,177.385,177.0,-75.0285,177.0,177.007
6074.7,102645.53,176.415,176.0,-15.2575,176.0,176.004
5949.67,100532,175.228,175.0,0.824909,175.0,175.003
5939.67,100363,174.268,174.0,1.72353,174.0,174.008
5911.6,99889.1,173.263,173.0,1.84478,173.0,173.001
5919.5,100022.65,172.333,172.0,1.89203,172.0,171.999
5846.89,98795.5,171.265,171.0,1.85817,171.0,171.011
5822.57,98384.6,170.269,170.0,1.05829,170.0,170.006
5769.31,97484.4,169.217,169.0,1.29309,169.0,168.999
5805.14,98090,168.342,168.0,1.13769,168.0,168
5696.33,96251.1,167.18,167.0,1.62849,167.0,166.999
5689.33,96132.8,166.22,166.0,1.49228,166.0,166.004
5725.06,96736.7,165.338,165.0,1.14946,165.0,165.007
5621.8,94991.5,164.172,164.0,1.48718,164.0,164.008
5657.8,95599.92,163.283,163.0,1.31936,163.0,163.006
5559.0,93930.2,162.122,162.0,1.67609,162.0,162.002
5595.23,94542.4,161.236,161.0,1.2657,161.0,160.997
5548.46,93752.1,160.192,160.0,1.29447,160.0,159.998
5536.76,93554.4,159.219,159.0,1.33175,159.0,159
5531.76,93469.9,158.247,158.0,1.20337,158.0,157.994
5442.66,91964,157.11,157.0,1.72877,157.0,156.994
5478.74,92573.7,156.213,156.0,2.31494,156.0,155.994
5436.13,91853.8,155.164,155.0,5.39112,155.0,154.999
5429.57,91742.8,154.202,154.0,14.266,154.0,154.002
5348.86,90378.8,153.068,153.0,28.0252,153.0,152.996
5347.86,90361.9,152.109,152.0,32.7299,152.0,151.996
5346.86,90345,151.161,151.0,23.9438,151.0,151.003
5344.79,90310,150.215,150.0,13.1931,150.0,150.006
5237.43,88495.7,149.03,149.0,6.68331,149.0,149
5309.0,89705.2,148.231,148.0,2.83219,148.0,148
5242.31,88578.2,147.137,147.0,1.11081,147.0,146.998
5178.62,87501.8,146.046,146.0,0.420147,146.0,145.995
5186.08,87627.8,145.123,145.0,-0.0638387,145.0,144.994
5157.0,87136.4,144.111,144.0,-0.232913,144.0,143.999
5138.35,86821.15,143.103,143.0,-0.214813,143.0,143.004
5144.35,86922.5,142.123,142.0,-0.474075,142.0,141.998
5124.24,86582.8,141.106,141.0,-0.447933,141.0,140.996
5100.51,86181.8,140.032,140.0,-0.326378,140.0,140
5163.88,87252.75,139.134,139.0,-0.585384,139.0,139.006
5145.15,86936.2,138.071,138.0,-0.462837,138.0,138.004
5152.15,87054.5,137.084,137.0,-0.526003,137.0,136.998
5135.95,86780.655,136.051,136.0,-0.44731,136.0,135.993
5116.04,86444.1,135.038,135.0,-0.338367,135.0,134.999
5109.48,86333.2,134.037,134.0,-0.46329,134.0,134.004
5119.48,86502.2,133.098,133.0,-0.605051,133.0,133.004
5090.36,86010.1,132.017,132.0,-0.444156,132.0,132.004
5083.93,85901.5,131.036,131.0,-0.491448,131.0,131.003
5079.36,85824.3,130.019,130.0,-0.490019,130.0,130.003
5099.99,86172.9,129.092,129.0,-0.655721,129.0,128.999
5044.5,85235.15,127.981,128.0,-0.474232,128.0,127.998
5033.89,85055.9,126.979,127.0,-0.504841,127.0,127
5048.33,85299.8,126.016,126.0,-0.680219,126.0,125.999
5024.25,84892.925,124.959,125.0,-0.584597,125.0,125
4992.79,84361.3,123.94,124.0,-0.517453,124.0,124.004
5010.54,84661.3,122.957,123.0,-0.829707,123.0,123.003
5041.54,85185.2,121.967,122.0,-1.14265,122.0,121.999
5055.03,85413.1,120.941,121.0,-1.03413,121.0,120.999
5071.87,85697.7,119.938,120.0,-0.733269,120.0,120.001
5099.65,86167.3,118.955,119.0,-0.596026,119.0,119.002
5110.12,86344.1,117.922,118.0,-0.434325,118.0,117.998
5127.73,86641.7,116.897,117.0,-0.365954,117.0,117
5184.84,87607,115.909,116.0,-0.410307,116.0,115.996
5201.94,87895.9,114.913,115.0,-0.36627,115.0,114.991
5217.38,88156.9,113.897,114.0,-0.375945,114.0,113.989
5209.26,88019.6,112.863,113.0,-0.305266,113.0,112.987
5302.43,89594.1,111.871,112.0,-0.397991,112.0,111.998
5393.69,91136.5,110.854,111.0,-0.385841,111.0,110.977
5482.85,92643.2,109.847,110.0,-0.406511,110.0,109.982
5674.3,95878.7,108.833,109.0,-0.413324,109.0,108.968
5972.5,100918.35,107.78,108.0,-0.391129,108.0,107.917