File: z_unorganized_archive/i_data/0.10Kmin/mean_H2O-NH3_4.8402g.csv
Index,Time(s),Furnace Temperature(K),Sample Temperature(K),HeatFlow(mW),T(K),Sample Temperature(K)_2
64.0,1064.7,299.437,300.0,49.8103,300.0,299.622
13873.5,234445,299.052,298.0,0.422259,298.0,298.224
10426.3,176187,296.823,296.0,-8.5327,296.0,296.034
9433.14,159403.166,294.787,294.0,-5.2279,294.0,293.998
9504.71,160613,292.606,292.0,-2.58539,292.0,291.999
9856.33,166555,290.904,290.0,-3.77422,290.0,289.997
9871.4,166810,288.834,288.0,-2.40737,288.0,287.993
9759.57,164920,286.653,286.0,-0.203304,286.0,286.011
9917.67,167592,284.876,284.0,-1.53946,284.0,283.993
9723.77,164315,282.604,282.0,0.966188,282.0,281.998
9817.11,165892,280.798,280.0,-0.321591,280.0,279.995
9767.11,165047,278.791,278.0,-0.0276132,278.0,278.008
9774.11,165166,276.872,276.0,-0.92973,276.0,276.003
9667.11,163357,274.793,274.0,-12.8299,274.0,274.015
9616.33,162499,272.789,272.0,-152.299,272.0,272.001
9565.56,161641,270.799,270.0,-157.042,270.0,270.009
9570.24,161720,268.887,268.0,-117.754,268.0,267.987
9519.02,160855,266.911,266.0,-81.8392,266.0,266
9468.02,159993,264.926,264.0,-56.0877,264.0,263.993
9229.74,155966,262.632,262.0,-34.867,262.0,262
9312.56,157365,260.887,260.0,-25.3341,260.0,260.001
9075.17,153354,258.58,258.0,-13.8888,258.0,257.995
8848.81,149528,256.299,256.0,269.478,256.0,256.001
8977.65,151705,254.63,254.0,246.658,254.0,254.002
8984.34,151818,252.766,252.0,122.453,252.0,252
8764.75,148107.375,250.496,250.0,54.9073,250.0,249.998
8661.3,146359,248.439,248.0,23.8054,248.0,247.999
8614.3,145565,246.48,246.0,11.8467,246.0,245.998
8623.0,145712,244.63,244.0,6.52153,244.0,244.011
8521.3,143993,242.573,242.0,5.12814,242.0,242.009
8474.55,143203,240.615,240.0,3.79223,240.0,240.005
8482.25,143333.125,238.753,238.0,2.27421,238.0,237.998
8281.73,139944,236.529,236.0,3.21906,236.0,236.001
8335.83,140859,234.754,234.0,1.51401,234.0,234
8191.67,138422,232.638,232.0,1.80375,232.0,232.009
7948.29,134309,230.337,230.0,3.02626,230.0,230.008
7905.29,133582,228.39,228.0,2.47838,228.0,227.995
7917.14,133782.766,226.554,226.0,1.50613,226.0,226.004
7820.29,132146,224.515,224.0,1.34808,224.0,224.004
7699.59,130106,222.425,222.0,1.28025,222.0,222.004
7604.0,128491,220.384,220.0,1.37951,220.0,220.005
7693.71,130007,218.665,218.0,-0.113321,218.0,217.997
7453.27,125943,216.344,216.0,1.06064,216.0,215.999
7482.6,126439,214.494,214.0,0.296781,214.0,213.998
7320.76,123704,212.301,212.0,0.739651,212.0,211.994
7282.45,123057,210.352,210.0,0.561545,210.0,210.005
7362.1,124402.59,208.621,208.0,-0.457947,208.0,207.997
7145.3,120739,206.346,206.0,0.245727,206.0,206.001
7056.02,119230,204.296,204.0,0.287853,204.0,203.996
7070.7,119478,202.464,202.0,-0.32575,202.0,202.004
6983.02,117996.125,200.426,200.0,-0.206361,200.0,200.006
6946.67,117381.875,198.468,198.0,-0.410626,198.0,197.992
6809.47,115063,196.352,196.0,0.0303758,196.0,196.001
6774.81,114477,194.422,194.0,-0.203176,194.0,193.999
6789.83,114731,192.564,192.0,-0.730242,192.0,192.001
6613.02,111743,190.352,190.0,-0.439878,190.0,190.005
6629.51,112022,188.531,188.0,-0.784491,188.0,188.002
6461.27,109179,186.359,186.0,-0.432908,186.0,186.008
6396.32,108081,184.36,184.0,-0.435329,184.0,183.996
6319.625,106785,182.312,182.0,-0.487277,182.0,181.99
6213.65,104994,180.245,180.0,-0.395701,180.0,180.003
6186.65,104537,178.304,178.0,-22.0832,178.0,178.005
6160.42,104094,176.355,176.0,-10.7268,176.0,176
6039.7,102054.03,174.259,174.0,0.63872,174.0,174
5971.02,100893,172.221,172.0,6.01298,172.0,172.002
5948.42,100511,170.288,170.0,-0.914287,170.0,170.001
5862.92,99066.4,168.226,168.0,0.283318,168.0,167.992
5825.89,98440.6,166.258,166.0,0.322469,166.0,165.998
5806.47,98112.4,164.308,164.0,0.17809,164.0,163.996
5689.84,96141.4,162.205,162.0,0.518732,162.0,162.009
5673.71,95868.8,160.228,160.0,0.391098,160.0,159.996
5605.78,94720.7,158.217,158.0,0.829151,158.0,157.999
5535.05,93525.4,156.23,156.0,3.04528,156.0,156.006
5479.13,92580.5,154.241,154.0,10.7479,154.0,153.996
5427.62,91709.8,152.26,152.0,7.29691,152.0,151.999
5380.39,90911.7,150.2,150.0,2.41813,150.0,150.001
5299.92,89551.7,148.129,148.0,0.59848,148.0,148.001
5229.55,88362.5,146.14,146.0,-0.0972464,146.0,145.999
5199.99,87862.9,144.156,144.0,-0.406434,144.0,144.008
5144.87,86931.4,142.144,142.0,-0.47046,142.0,142.001
5126.17,86615.4,140.127,140.0,-0.416639,140.0,140.004
5110.65,86353.2,138.121,138.0,-0.538706,138.0,137.995
5046.22,85264.1,136.01,136.0,-0.360231,136.0,135.995
5114.82,86423.6,134.11,134.0,-0.637187,134.0,134.002
5107.35,86297.315,132.087,132.0,-0.587207,132.0,132
5045.79,85256.9,130.054,130.0,-0.568179,130.0,129.998
4987.46,84271.2,128.033,128.0,-0.625889,128.0,127.996
4938.44,83442.8,125.965,126.0,-0.543465,126.0,125.996
4904.79,82874.1,123.96,124.0,-0.531407,124.0,123.993
5085.31,85924.8,122.051,122.0,-1.23064,122.0,122.015
5609.57,94784.9,119.995,120.0,-1.62969,120.0,120.006
5768.53,97471.3,117.964,118.0,-1.15601,118.0,118.001
5794.82,97915.6,115.957,116.0,-0.654632,116.0,116.004
5773.33,97552.4,113.934,114.0,-0.545585,114.0,114
5748.34,97130.1,112.042,112.0,-0.639821,112.0,112.011
5682.52,96017.6,109.902,110.0,-0.346933,110.0,109.991
5653.17,95521.6,108.054,108.0,-0.445783,108.0,107.996
5598.21,94592.8,105.968,106.0,-0.290574,106.0,105.994
5657.22,95590.1,103.946,104.0,0.0305796,104.0,103.952
5397.62,91202.9,101.887,102.0,-0.563756,102.0,102.018
4939.96,83468.4,99.8411,100.0,-0.500413,100.0,99.9831
4770.5,80604.55,98.9785,99.0,-0.415962,99.0,99.1355