File: z_unorganized_archive/i_data/0.10Kmin/mean_H2O-NH3_4.6293g.csv
Index,Time(s),Furnace Temperature(K),Sample Temperature(K),HeatFlow(mW),T(K),Sample Temperature(K)_2
51.0,845,300.416,301.0,21.4627,301.0,300.566
137.0,2298.4,298.123,300.0,6.4505,300.0,300.16
185.5,3118.05,293.506,299.0,23.7724,299.0,299.021
13944.0,235637,299.057,298.0,0.471843,298.0,298.212
11631.9,196562,297.858,297.0,-4.90327,297.0,297.061
10781.6,182193,296.852,296.0,-7.91176,296.0,296.035
10000.8,168997,295.681,295.0,-6.89881,295.0,295.025
9811.25,165793.225,294.941,294.0,-5.22303,294.0,294.011
9787.25,165387.625,293.843,293.0,-3.71706,293.0,293.012
9696.45,163853,292.62,292.0,-1.73212,292.0,292.01
9940.66,167980,291.891,291.0,-3.25899,291.0,291.008
9852.26,166486,290.719,290.0,-1.59452,290.0,290.006
9891.43,167148,289.73,289.0,-1.38963,289.0,289.001
10013.8,169216,288.897,288.0,-2.28645,288.0,288.001
9841.96,166312,287.623,287.0,-0.00369877,287.0,286.996
9963.22,168362,286.805,286.0,-1.09616,286.0,285.987
9938.22,167939,285.782,285.0,-0.639821,285.0,284.998
9972.07,168511,284.847,284.0,-0.966489,284.0,283.997
9887.44,167081,283.727,283.0,0.0704195,283.0,282.994
9862.44,166658,282.713,282.0,0.327544,282.0,282.001
9895.63,167219,281.786,281.0,-0.180959,281.0,280.995
9811.67,165800,280.673,280.0,0.725946,280.0,279.988
9999.3,168971,280.035,279.0,-1.7812,279.0,279.001
9818.98,165924,278.775,278.0,0.263884,278.0,278.004
9735.67,164516,277.671,277.0,1.11675,277.0,276.995
9710.67,164093,276.671,276.0,1.16386,276.0,275.997
9685.67,163671,275.675,275.0,1.17973,275.0,275
9922.6,167675.04,275.126,274.0,-2.30384,274.0,274.003
9634.67,162809,273.692,273.0,0.841346,273.0,273.004
9609.67,162386,272.705,272.0,-0.36988,272.0,272.004
9584.67,161964,271.713,271.0,-8.15427,271.0,271.003
9559.67,161541,270.734,270.0,-51.3527,270.0,270.003
9534.67,161119,269.75,269.0,-93.6983,269.0,269.006
9565.02,161632,268.851,268.0,-106.282,268.0,268.005
9483.89,160261,267.762,267.0,-103.121,267.0,267.006
9513.8,160766,266.867,266.0,-97.1077,266.0,266.009
9240.43,156146,265.441,265.0,-81.9424,265.0,265.001
9462.8,159904,264.875,264.0,-77.7448,264.0,263.993
9382.56,158548,263.789,263.0,-67.1628,263.0,263
9411.59,159039,262.901,262.0,-59.919,262.0,262.007
9142.2,154486,261.483,261.0,-47.1463,261.0,261.003
9360.59,158177,260.922,260.0,-44.6583,260.0,259.999
9093.2,153658,259.503,259.0,-34.3039,259.0,258.999
9309.59,157315,258.943,258.0,-33.4163,258.0,257.999
9044.2,152830,257.544,257.0,-24.8436,257.0,256.998
9020.2,152424,256.564,256.0,-20.7062,256.0,255.997
9233.59,156031,256.003,255.0,-21.2271,255.0,255
8971.2,151596,254.609,254.0,-14.5518,254.0,254.005
8947.2,151191,253.637,253.0,13.822,253.0,253.011
8805.5,148796.05,252.435,252.0,243.901,252.0,252.003
8898.67,150371,251.657,251.0,221.029,251.0,251
8701.4,147037,250.375,250.0,185.952,250.0,250.005
8904.79,150474,249.792,249.0,115.523,249.0,249
8654.4,146243,248.406,248.0,86.0096,248.0,247.995
8802.39,148744,247.745,247.0,49.9737,247.0,247.002
8663.75,146400.475,246.559,246.0,35.1881,246.0,246
8753.87,147923,245.784,245.0,20.6445,245.0,245.001
8616.25,145597.725,244.613,244.0,15.856,244.0,244.003
8537.4,144265,243.54,243.0,12.0825,243.0,242.994
8514.4,143877,242.573,242.0,9.25654,242.0,241.999
8491.4,143488,241.606,241.0,7.23371,241.0,241.007
8522.5,144013.35,240.731,240.0,5.11501,240.0,240.007
8286.67,140028,239.38,239.0,6.77049,239.0,238.997
8421.91,142313,238.688,238.0,4.00924,238.0,238
8297.84,140217,237.533,237.0,4.64028,237.0,236.997
8375.43,141528,236.737,236.0,2.86162,236.0,235.996
8197.4,138519,235.499,235.0,3.96573,235.0,235.007
8230.04,139071,234.616,234.0,3.01252,234.0,233.999
8152.67,137763,233.541,233.0,3.16329,233.0,232.994
8130.67,137391,232.569,232.0,2.61011,232.0,232.003
8162.51,137930,231.687,231.0,1.72236,231.0,231.004
7940.86,134184,230.355,230.0,3.27249,230.0,229.997
8064.21,136268,229.652,229.0,1.46297,229.0,228.998
7898.57,133469,228.423,228.0,2.55146,228.0,228.003
8073.24,136421,227.797,227.0,0.52327,227.0,227.002
7855.57,132742,226.473,226.0,2.10131,226.0,226.004
7834.57,132387,225.502,225.0,1.73684,225.0,225.007
7813.57,132032,224.531,224.0,1.59967,224.0,224.012
7846.02,132580.838,223.645,223.0,1.07181,223.0,223.009
7637.2,129051.78,222.324,222.0,2.2773,222.0,221.998
7750.14,130961,221.596,221.0,0.878325,221.0,220.999
7596.9,128370.71,220.389,220.0,1.84924,220.0,220.002
7760.74,131140,219.746,219.0,0.169814,219.0,218.998
7555.9,127678,218.437,218.0,1.50198,218.0,217.998
7535.9,127340,217.463,217.0,1.04032,217.0,217.003
7515.9,127002,216.495,216.0,0.687546,216.0,216.009
7548.59,127554,215.623,215.0,0.119571,215.0,215.006
7352.29,124237,214.319,214.0,1.33226,214.0,213.997
7455.5,125981.05,213.574,213.0,0.0397097,213.0,213.001
7367.12,124487,212.477,212.0,0.368145,212.0,211.998
7294.29,123257,211.393,211.0,0.476438,211.0,210.989
7395.4,124965,210.652,210.0,-0.338945,210.0,210.002
7194.57,121571,209.343,209.0,0.713423,209.0,208.998
7236.61,122282,208.469,208.0,0.0067059,208.0,207.989
7217.61,121961,207.505,207.0,0.101939,207.0,207.001
7138.28,120620,206.418,206.0,0.384728,206.0,205.997
7179.24,121312,205.555,205.0,-0.25102,205.0,204.996
7048.85,119108.6,204.388,204.0,0.258448,204.0,204.008
7082.32,119674,203.508,203.0,-0.381623,203.0,203.001
7012.17,118489,202.433,202.0,-0.219979,202.0,201.999
6889.0,116407,201.274,201.0,0.21371,201.0,201
6976.5,117886,200.511,200.0,-0.467423,200.0,200.004
6905.83,116692,199.441,199.0,-0.042541,199.0,199.004
6837.0,115528,198.369,198.0,-0.0294765,198.0,198
6870.5,116094.55,197.48,197.0,-0.605748,197.0,196.998
6802.34,114943,196.408,196.0,-0.521484,196.0,195.996
6687.98,113010,195.253,195.0,0.139251,195.0,194.998
6818.17,115210,194.559,194.0,-0.873047,194.0,193.994
6654.98,112452,193.315,193.0,-0.234641,193.0,192.996
6638.98,112182,192.361,192.0,-0.360404,192.0,192
6672.29,112745,191.485,191.0,-0.828783,191.0,191
6515.73,110099,190.252,190.0,-0.172897,190.0,189.995
6500.73,109845,189.276,189.0,-0.27659,189.0,188.992
6575.04,111101,188.476,188.0,-0.861308,188.0,188
6470.36,109332,187.339,187.0,-0.551434,187.0,187.012
6503.64,109895,186.455,186.0,-0.76363,186.0,186.01
6355.5,107391.05,185.213,185.0,-0.290389,185.0,185.002
6425.09,108567,184.41,184.0,-0.846124,184.0,184.005
6374.95,107720,183.373,183.0,-0.712432,183.0,183.005
6312.5,106664.35,182.324,182.0,-0.468383,182.0,182
6219.7,105096,181.214,181.0,-0.166135,181.0,180.998
6284.875,106197,180.401,180.0,-1.11772,180.0,180.003
6240.19,105442,179.367,179.0,-5.06952,179.0,179.003
6179.7,104420,178.303,178.0,-41.924,178.0,177.998
6139.63,103743,177.282,177.0,-58.9114,177.0,176.997
6153.47,103977,176.367,176.0,-13.026,176.0,175.999
6113.85,103307,175.338,175.0,-0.101422,175.0,175.001
6055.45,102320,174.283,174.0,0.763554,174.0,174.001
5974.69,100955,173.19,173.0,1.38644,173.0,173.004
6076.46,102675,172.435,172.0,3.82447,172.0,172.003
5951.69,100567,171.246,171.0,-1.50478,171.0,171.007
5920.54,100040,170.245,170.0,-0.925893,170.0,170.001
5865.42,99108.6,169.197,169.0,0.363231,169.0,168.993
5855.42,98939.6,168.27,168.0,0.659599,168.0,168.002
5828.18,98479.3,167.279,167.0,0.610717,167.0,167.001
5775.02,97580.9,166.217,166.0,0.7151,166.0,165.998
5808.76,98151.1,165.332,165.0,0.480386,165.0,165.001
5699.31,96301.4,164.14,164.0,0.831001,164.0,164
5733.43,96878,163.266,163.0,0.448171,163.0,162.996
5628.56,95105.7,162.14,162.0,0.89746,162.0,161.992
5663.0,95687.8,161.283,161.0,0.454477,161.0,160.991
5614.0,94859.7,160.233,160.0,0.542221,160.0,159.999
5506.92,93050.1,159.09,159.0,0.949763,159.0,159.005
5542.32,93648.3,158.232,158.0,0.710332,158.0,157.997
5496.38,92872.0,157.222,157.0,0.872975,157.0,157.002
5440.15,91921.6,156.162,156.0,1.48495,156.0,156.003
5441.18,91939.1,155.188,155.0,3.76946,155.0,155.002
5432.21,91787.4,154.2,154.0,10.9025,154.0,154.006
5348.1,90366,153.095,153.0,17.88,153.0,153.002
5343.81,90293.6,152.171,152.0,16.8935,152.0,151.999
5304.46,89628.5,151.149,151.0,11.5107,151.0,151.002
5302.38,89593.3,150.161,150.0,6.57685,150.0,150.003
5265.0,88961.6,149.081,149.0,3.44166,149.0,148.999
5300.89,89568.1,148.187,148.0,1.45319,148.0,148.001
5264.5,88953.2,147.112,147.0,0.625167,147.0,146.993
5229.62,88363.7,146.115,146.0,0.200258,146.0,145.996
5199.07,87847.3,145.12,145.0,-0.178002,145.0,145.001
5201.07,87881.1,144.142,144.0,-0.464905,144.0,143.997
5139.14,86834.5,143.039,143.0,-0.254795,143.0,143.001
5175.88,87455.5,142.13,142.0,-0.488476,142.0,142.001
5146.66,86961.7,141.048,141.0,-0.397986,141.0,141.003
5153.92,87084.4,140.109,140.0,-0.458669,140.0,140.008
5104.19,86243.95,139.05,139.0,-0.262724,139.0,138.998
5084.82,85916.6,138.098,138.0,-0.42127,138.0,137.992
5020.82,84834.9,137.049,137.0,-0.389477,137.0,136.994
4979.78,84141.4,135.984,136.0,-0.339526,136.0,135.996
4999.07,84467.4,135.045,135.0,-0.545222,135.0,134.997
4971.2,83996.3,134.044,134.0,-0.541102,134.0,133.997
4966.38,83914.9,133.025,133.0,-0.51981,133.0,132.997
4981.38,84168.4,132.038,132.0,-0.604521,132.0,131.997
4978.82,84125.1,131.023,131.0,-0.623254,131.0,131.001
4978.07,84112.4,130.016,130.0,-0.613279,130.0,130
4948.24,83608.3,128.962,129.0,-0.473666,129.0,128.996
4939.5,83460.65,127.976,128.0,-0.525006,128.0,127.995
4921.8,83161.6,126.974,127.0,-0.512434,127.0,126.998
4919.94,83130.1,125.993,126.0,-0.643535,126.0,125.996
4916.79,83076.9,124.955,125.0,-0.647257,125.0,125.001
4955.78,83735.8,123.981,124.0,-0.724195,124.0,124.003
4975.87,84075.2,122.973,123.0,-0.818064,123.0,123.001
4945.0,83553.6,121.926,122.0,-0.813068,122.0,121.996
4967.45,83933,120.932,121.0,-0.907445,121.0,120.999
5008.56,84627.8,119.954,120.0,-0.80982,120.0,119.998
4999.0,84466.2,118.922,119.0,-0.492173,119.0,118.993
5001.46,84507.7,117.881,118.0,-0.446127,118.0,117.998
5049.6,85321.34,116.906,117.0,-0.450309,117.0,117
5110.16,86344.8,115.931,116.0,-0.453402,116.0,115.99
5136.18,86784.5,114.885,115.0,-0.382323,115.0,114.995
5157.52,87145.2,113.837,114.0,-0.31405,114.0,113.972
5242.85,88587.2,112.872,113.0,-0.4552,113.0,112.992
5383.76,90968.6,111.867,112.0,-0.459876,112.0,111.997
5575,94200.5,110.879,111.0,-0.479072,111.0,110.992
5746.26,97094.9,109.821,110.0,-0.423385,110.0,109.954
6051.0,102245.0,108.983,109.0,-0.416923,109.0,109.116