File: z_unorganized_archive/i_data/0.10Kmin/mean_H2O-NH3_2.5108g.csv
Index,Time(s),Furnace Temperature(K),Sample Temperature(K),HeatFlow(mW),T(K),Sample Temperature(K)_2
64.0,1064.7,298.426,299.0,28.1347,299.0,298.682
11069.8,187063,297.929,297.0,-2.12309,297.0,297.073
9785.33,165355,295.967,295.0,-4.89534,295.0,295.018
9404.74,158923,293.809,293.0,-2.09642,293.0,293.008
9546.1,161312,291.694,291.0,-1.05093,291.0,291.006
9891.09,167142,290.005,289.0,-1.68002,289.0,289.002
9841.85,166310,287.867,287.0,-0.77263,287.0,287.012
9729.59,164413,285.643,285.0,0.194186,285.0,284.99
9681.35,163598,283.587,283.0,0.643406,283.0,282.994
9838.11,166247,281.877,281.0,-3.01283,281.0,280.995
9788.11,165402,279.867,279.0,-156.822,279.0,279.006
9849.77,166444,277.987,277.0,-278.117,277.0,276.991
9742.11,164625,275.863,275.0,-123.316,275.0,274.991
9634.44,162805,273.785,273.0,7.17485,273.0,273.01
9386.39,158613,271.459,271.0,8.84444,271.0,271
9533.11,161093,269.802,269.0,7.63545,269.0,268.993
9483.33,160251,267.836,267.0,7.67242,267.0,266.999
9239.91,156138,265.539,265.0,8.91094,265.0,265
9248.83,156288,263.67,263.0,8.53129,263.0,263.007
9142.91,154498,261.594,261.0,8.85925,261.0,260.997
9093.91,153670,259.635,259.0,8.76738,259.0,259.005
8925.75,150828.275,257.453,257.0,378.171,257.0,257.005
8878.25,150025.525,255.475,255.0,151.595,255.0,254.997
8948.87,151219,253.723,253.0,30.8858,253.0,253.004
8900.35,150399,251.756,251.0,6.94938,251.0,250.992
8736.25,147625.725,249.608,249.0,2.33053,249.0,249.008
8633.19,145884,247.549,247.0,1.29548,247.0,246.998
8586.19,145090,245.593,245.0,0.988421,245.0,245.009
8436.35,142557,243.464,243.0,1.1667,243.0,243.001
8493.7,143527,241.682,241.0,0.710778,241.0,241.005
8447.21,142741,239.717,239.0,0.635045,239.0,238.999
8400.72,141955,237.756,237.0,0.35241,237.0,236.998
8254.96,139492,235.632,235.0,0.634772,235.0,235.004
8155.375,137809,233.586,233.0,0.72324,233.0,233.008
8110.92,137058,231.612,231.0,0.73526,231.0,230.991
7922.71,133877,229.424,229.0,1.02559,229.0,229.013
7880.0,133155.1,227.452,227.0,0.900233,227.0,226.992
7891.66,133352,225.615,225.0,0.557796,225.0,225.011
7795.29,131723,223.558,223.0,0.569325,223.0,222.999
7619.8,128758,221.368,221.0,0.788145,221.0,220.997
7633.29,128986,219.525,219.0,0.713912,219.0,219.004
7538.8,127388.82,217.477,217.0,0.58183,217.0,217.001
7429.35,125539,215.397,215.0,0.692215,215.0,214.999
7336.37,123968,213.345,213.0,0.75739,213.0,212.996
7350.81,124211.75,211.502,211.0,0.470011,211.0,211.002
7259.37,122666,209.458,209.0,0.288884,209.0,209
7160.77,121000,207.406,207.0,0.40596,207.0,207
7071.1,119484.625,205.37,205.0,0.608785,205.0,205.005
7086.49,119745,203.517,203.0,0.311657,203.0,203
6998.42,118256,201.459,201.0,0.0341969,201.0,201.005
7012.85,118500,199.564,199.0,-0.0987755,199.0,198.997
6823.74,115304,197.292,197.0,0.286936,197.0,197.004
6839.17,115565,195.424,195.0,0.160062,195.0,195.004
6754.74,114138,193.366,193.0,-0.00708675,193.0,192.992
6720.74,113564,191.431,191.0,-0.0816203,191.0,190.997
6593.39,111411,189.314,189.0,-0.090471,189.0,189.01
6609.29,111680,187.465,187.0,-0.264025,187.0,186.997
6528.74,110319,185.444,185.0,-0.271585,185.0,184.995
6411.0,108329,183.327,183.0,-0.265568,183.0,182.99
6381.0,107822,181.376,181.0,-0.317491,181.0,180.991
6396.79,108089,179.528,179.0,-0.48183,179.0,178.999
6320.73,106803,177.493,177.0,-0.354245,177.0,177.004
6212.875,104981,175.377,175.0,-0.162429,175.0,174.995
6154.98,104002,173.346,173.0,-0.275231,173.0,172.994
6199.79,104760,171.531,171.0,-0.518484,171.0,170.996
5987.72,101176,169.191,169.0,-0.12169,169.0,169.003
5962.72,100753,167.229,167.0,-0.292574,167.0,166.996
5980.37,101051,165.359,165.0,-0.460752,165.0,165.009
5892.3,99562.97,163.259,163.0,-0.213289,163.0,162.998
5868.5,99160.75,161.316,161.0,-0.339848,161.0,160.999
5845.1,98765.29,159.344,159.0,-0.293098,159.0,158.995
5821.7,98369.83,157.333,157.0,-0.341718,157.0,157.003
5759.31,97315.4,155.233,155.0,-0.232471,155.0,155.005
5737.12,96940.4,153.249,153.0,-0.251548,153.0,152.996
5660.67,95648.4,151.128,151.0,-0.23417,151.0,151.001
5675.9,95905.8,149.225,149.0,-0.474178,149.0,149.002
5654.08,95537.1,147.232,147.0,-0.418781,147.0,147.007
5632.67,95175.3,145.293,145.0,-0.510011,145.0,145.005
5483.98,92662.4,143.117,143.0,-0.296388,143.0,142.999
5415.75,91509.34,141.117,141.0,-0.366417,141.0,140.996
5402.31,91282.1,139.263,139.0,-0.546348,139.0,139.004
5350.86,90412.7,137.243,137.0,-0.512503,137.0,137.001
5338.86,90209.9,135.136,135.0,-0.545527,135.0,134.998
5291.84,89415.1,133.1,133.0,-0.557835,133.0,132.994
5219.7,88196.1,131.028,131.0,-0.560395,131.0,131.003
5241.44,88563.5,129.101,129.0,-0.690813,129.0,129.002
5233.91,88436.2,127.158,127.0,-0.791759,127.0,126.998
5255.61,88802.9,125.091,125.0,-0.756759,125.0,124.991
5275.14,89132.9,123.121,123.0,-0.776943,123.0,122.994
5180.78,87538.3,120.959,121.0,-0.592088,121.0,121
5149.81,87015,119.025,119.0,-0.704511,119.0,119.003
5100.0,86173.1,116.996,117.0,-0.684429,117.0,116.994
5038.92,85140.8,114.953,115.0,-0.662906,115.0,115.004
5011.29,84673.9,112.972,113.0,-0.648815,113.0,112.998
5024.02,84889.1,110.996,111.0,-0.73248,111.0,111.003
5146.45,86958,108.992,109.0,-0.809212,109.0,109.004
5308.37,89694.6,106.972,107.0,-0.855873,107.0,107.005
5375.36,90826.7,104.964,105.0,-0.858652,105.0,105.002
5388.43,91047.5,102.936,103.0,-0.777873,103.0,102.993
5415.46,91504.4,100.922,101.0,-0.641938,101.0,100.985
5642.0,95332.9,98.8527,99.0,-0.611329,99.0,98.9885
5237.05,88489.2,96.8489,97.0,-0.600875,97.0,97.0132
4949.4,83627.96,94.8468,95.0,-0.602874,95.0,94.9986
4738.97,80071.7,92.8205,93.0,-0.575855,93.0,92.9788
4617.5,78018.85,91.2576,91.0,-0.528191,91.0,91.4192