File: i_data/water_tests/archive/2014_blank.csv
Blank_run_033114,,,,
Creation Date : 3/2/2023 1:35:40 PM,,,,
User : admin,,,,
,,,,
HeatFlow :,,,,
 Initial Mass : 0 mg,,,,
 Molar Mass : N/A,,,,
,,,,
Index,Time(s),Furnace Temperature(K),Sample Temperature(K),HeatFlow(mW)
1,0,293.168,291.707,106.1
60,932.2,273.189,288.27,2.638112
119,1864.4,262.607,281.672,1.353154
178,2796.6,254.325,274.342,2.237176
237,3728.8,247.02,267.003,3.020997
296,4661,239.922,259.796,3.644939
355,5593.2,232.978,252.756,3.976581
414,6525.4,226.533,245.926,4.414616
473,7457.6,220.6,239.37,4.809704
532,8389.8,214.94,233.086,5.193765
591,9322,210.089,227.22,5.22386
650,10254.2,205.364,221.721,5.933442
709,11186.4,200.825,216.52,5.628001
768,12118.6,196.279,211.535,6.618905
827,13050.8,192.188,206.794,5.237113
886,13983,188.52,202.34,5.399192
945,14915.2,184.977,198.167,3.573669
1004,15847.4,181.589,194.213,4.135939
1063,16779.6,178.257,190.43,3.472817
1122,17711.8,174.906,186.794,2.34771
1181,18644,171.966,183.323,2.441808
1240,19576.2,169.22,180.046,2.78023
1299,20508.4,166.618,176.944,1.989416
1358,21440.6,164.026,173.974,2.599463
1417,22372.8,161.646,171.156,2.774811
1476,23305,159.147,168.44,2.686401
1535,24237.2,156.958,165.838,3.075146
1594,25169.4,154.752,163.349,2.575586
1653,26101.6,152.582,160.954,2.337344
1712,27033.8,150.614,158.639,2.173175
1771,27966,148.793,156.445,1.924491
1830,28898.2,146.964,154.348,2.010606
1889,29830.4,145.201,152.334,2.125743
1948,30762.6,143.51,150.392,1.708017
2007,31694.8,141.825,148.527,1.667343
2066,32627,140.146,146.708,1.94614
2125,33559.2,138.19,144.901,1.65476
2184,34491.4,136.223,143.058,2.153114
2243,35423.6,134.118,141.145,1.775157
2302,36355.8,132.202,139.243,1.924735
2361,37288,130.083,137.312,1.882171
2420,38220.2,127.897,135.328,1.711843
2479,39152.4,125.584,133.258,1.67372
2538,40084.6,123.289,131.157,1.85124
2597,41016.8,121.131,129.038,1.591235
2656,41949,119.025,126.895,1.355399
2715,42881.2,116.884,124.771,1.475252
2774,43813.4,115.368,122.718,1.560736
2833,44745.6,113.781,120.8,1.135121
2892,45677.8,112.247,118.961,1.198225
2951,46610,110.643,117.176,1.256358
3010,47542.2,109.329,115.489,1.02833
3069,48474.4,108.03,113.885,0.803952
3128,49406.6,106.659,112.336,0.776449
3187,50338.8,105.562,110.866,0.873769
3246,51271,104.27,109.474,0.619532
3305,52203.2,103.118,108.119,0.690212
3364,53135.4,101.943,106.794,0.603533
3423,54067.6,101.039,105.548,0.555984
3482,54999.8,100.006,104.36,0.520615
3541,55932,99.3143,103.254,0.349942
3600,56864.2,98.4289,102.227,0.313884
3659,57796.4,97.8001,101.262,0.233459
3718,58728.6,97.2333,100.39,0.082188
3777,59660.8,96.65473,99.5842,-0.019927
3836,60593,96.1858,98.8468,-0.060157
3895,61525.2,95.5589,98.158,-0.087866
3954,62457.4,95.1328,97.5078,-0.128246
4013,63389.6,94.5956,96.9034,-0.200821
4072,64321.8,94.10105,96.315,-0.199434
4131,65254,93.6811,95.7615,-0.249649
4190,66186.2,93.1408,95.2177,-0.252623
4249,67118.4,92.6029,94.6833,-0.269006
4308,68050.6,92.2123,94.1593,-0.290483
4367,68982.8,91.8266,93.6737,-0.327006
4426,69915,91.3668,93.20011,-0.350239
4485,70847.2,90.8144,92.72225,-0.320925
4544,71779.4,90.2114,92.2127,-0.306589
4603,72711.6,89.6145,91.6852,-0.271506
4662,73643.8,89.0452,91.1373,-0.264178
4721,74576,88.6013,90.6066,-0.291527
4780,75508.2,88.1081,90.084,-0.3011
4839,76440.4,87.7818,89.5918,-0.332503
4898,77372.6,87.5348,89.1522,-0.404514
4957,78304.8,87.3555,88.7691,-0.454515
5016,79237,87.1412,88.4382,-0.506883
5075,80169.2,86.9169,88.1256,-0.494203
5134,81101.4,86.6725,87.835,-0.520479
5193,82033.6,86.56069,87.574,-0.54524
5252,82965.8,86.55,87.3475,-0.555562
5311,83898,88.6272,87.4477,-0.82929
5370,84830.2,90.1714,87.9429,-0.92104
5429,85762.4,91.7382,88.6991,-1.012267
5488,86694.6,93.294,89.6535,-1.067509
5547,87626.8,94.8306,90.752,-1.108891
5606,88559,96.3954,91.9571,-1.143257
5665,89491.2,97.96311,93.2359,-1.167195
5724,90423.4,99.5065,94.5778,-1.1801
5783,91355.6,101.069,95.9627,-1.183621
5842,92287.8,102.622,97.3826,-1.189552
5901,93220,104.159,98.82421,-1.20916
5960,94152.2,105.74,100.279,-1.188306
6019,95084.4,107.277,101.757,-1.197697
6078,96016.6,108.845,103.236,-1.205314
6137,96948.8,110.399,104.738,-1.20553
6196,97881,111.957,106.242,-1.213821
6255,98813.2,113.486,107.752,-1.199214
6314,99745.4,115.057,109.271,-1.192467
6373,100677.6,116.622,110.799,-1.207236
6432,101609.8,118.172,112.338,-1.203957
6491,102542,119.724,113.885,-1.201092
6550,103474.2,121.276,115.431,-1.186428
6609,104406.4,122.809,116.97,-1.157434
6668,105338.6,124.373,118.515,-1.162208
6727,106270.8,125.931,120.059,-1.153648
6786,107203,127.491,121.601,-1.147952
6845,108135.2,129.042,123.145,-1.147282
6904,109067.4,130.596,124.695,-1.136817
6963,109999.6,132.148,126.245,-1.120783
7022,110931.8,133.699,127.799,-1.112299
7081,111864,135.248,129.349,-1.119152
7140,112796.2,136.806,130.894,-1.109161
7199,113728.4,138.357,132.444,-1.09833
7258,114660.6,139.904,133.99,-1.081924
7317,115592.8,141.464,135.538,-1.085703
7376,116525,143.02,137.085,-1.072192
7435,117457.2,144.569,138.63,-1.070694
7494,118389.4,146.12,140.175,-1.062593
7553,119321.6,147.673,141.718,-1.062383
7612,120253.8,149.232,143.264,-1.068076
7671,121186,150.788,144.814,-1.094657
7730,122118.2,152.341,146.366,-1.157917
7789,123050.4,153.902,147.919,-1.216083
7848,123982.6,155.449,149.469,-1.185251
7907,124914.8,156.991,151.019,-1.039698
7966,125847,158.532,152.566,-0.984733
8025,126779.2,160.116,154.111,-0.965833
8084,127711.4,161.655,155.659,-0.954904
8143,128643.6,163.207,157.203,-0.933017
8202,129575.8,164.75,158.739,-0.908906
8261,130508,166.303,160.271,-0.902094
8320,131440.2,167.819,161.795,-0.894753
8379,132372.4,169.435,163.306,-0.858834
8438,133304.6,170.994,164.825,-0.855884
8497,134236.8,172.541,166.353,-0.829156
8556,135169,174.073,167.887,-0.791158
8615,136101.2,175.622,169.422,-0.769502
8674,137033.4,177.196,170.963,-0.690716
8733,137965.6,178.767,172.503,-0.652279
8792,138897.8,180.316,174.052,-0.591813
8851,139830,181.873,175.606,-0.564585
8910,140762.2,183.413,177.157,-0.631677
8969,141694.4,184.975,178.718,-0.69126
9028,142626.6,186.528,180.283,-0.659003
9087,143558.8,188.077,181.843,-0.620641
9146,144491,189.617,183.396,-0.609011
9205,145423.2,191.188,184.956,-0.601591
9264,146355.4,192.734,186.515,-0.568052
9323,147287.6,194.284,188.068,-0.520248
9382,148219.8,195.837,189.626,-0.574066
9441,149152,197.395,191.18,-0.550495
9500,150084.2,198.937,192.73,-0.519653
9559,151016.4,200.499,194.287,-0.488909
9618,151948.6,202.048,195.833,-0.450202
9677,152880.8,203.581,197.386,-0.46734
9736,153813,205.186,198.933,-0.463821
9795,154745.2,206.706,200.495,-0.443164
9854,155677.4,208.24,202.045,-0.464243
9913,156609.6,209.839,203.593,-0.442404
9972,157541.8,211.39,205.147,-0.38464
10031,158474,212.936,206.706,-0.439107
10090,159406.2,214.474,208.267,-0.355247
10149,160338.4,216.047,209.828,-0.395669
10208,161270.6,217.611,211.392,-0.409973
10267,162202.8,219.156,212.954,-0.43229
10326,163135,220.696,214.518,-0.414464
10385,164067.2,222.26,216.07,-0.414857
10444,164999.4,223.812,217.631,-0.430702
10503,165931.6,225.371,219.193,-0.427163
10562,166863.8,226.921,220.752,-0.410085
10621,167796,228.471,222.312,-0.442459
10680,168728.2,230.037,223.88,-0.403123
10739,169660.4,231.573,225.451,-0.358892
10798,170592.6,233.129,227.021,-0.355935
10857,171524.8,234.691,228.594,-0.360258
10916,172457,236.256,230.167,-0.386996
10975,173389.2,237.797,231.738,-0.384209
11034,174321.4,239.357,233.315,-0.355958
11093,175253.6,240.899,234.892,-0.366492
11152,176185.8,242.444,236.467,-0.393299
11211,177118,244.016,238.039,-0.385351
11270,178050.2,245.54,239.615,-0.401335
11329,178982.4,247.122,241.183,-0.417803
11388,179914.6,248.682,242.75,-0.427515
11447,180846.8,250.233,244.321,-0.446243
11506,181779,251.78,245.906,-0.44275
11565,182711.2,253.316,247.476,-0.460994
11624,183643.4,254.878,249.041,-0.48594
11683,184575.6,256.444,250.61,-0.506928
11742,185507.8,258.021,252.197,-0.53218
11801,186440,259.569,253.799,-0.494391
11860,187372.2,261.12,255.412,-0.512124
11919,188304.4,262.659,257.02,-0.548055
11978,189236.6,264.187,258.612,-0.570307
12037,190168.8,265.77,260.181,-0.612466
12096,191101,267.296,261.753,-0.580648
12155,192033.2,268.883,263.318,-0.580174
12214,192965.4,270.429,264.892,-0.595977
12273,193897.6,271.978,266.473,-0.618318
12332,194829.8,273.527,268.046,-0.633293
12391,195762,275.069,269.609,-0.660658
12450,196694.2,276.635,271.143,-0.652527
12509,197626.4,278.201,272.698,-0.695515
12568,198558.6,279.732,274.265,-0.668664
12627,199490.8,281.278,275.816,-0.68931
12686,200423,282.83,277.358,-0.6897
12745,201355.2,284.389,278.895,-0.68731
12804,202287.4,285.931,280.431,-0.700002
12863,203219.6,287.53,281.962,-0.652585
12922,204151.8,289.073,283.516,-0.661137
12981,205084,290.622,285.0591,-0.661683
13040,206016.2,292.158,286.61,-0.678397
13099,206948.4,293.22,288.135,-0.552884
13158,207880.6,293.15,289.305,-0.538484
13217,208812.8,293.162,290.105,-0.491116
13276,209745,293.156,290.657,-0.480445
13335,210677.2,293.157,291.02,-0.464525
13394,211609.4,293.15,291.276,-0.455755
13453,212541.6,293.156,291.456,-0.442362
13512,213473.8,293.146,291.563,-0.432463
13571,214406,293.141,291.643,-0.4364
13630,215338.2,293.143,291.692,-0.43534
13689,216270.4,293.131,291.721,-0.417706
13748,217202.6,293.163,291.745,-0.437388
13807,218134.8,293.149,291.765,-0.433579
13866,219067,293.133,291.768,-0.42805
13925,219999.2,293.143,291.764,-0.437898
13984,220931.4,293.16,291.752,-0.421493
14043,221863.6,293.159,291.746,-0.422359
14102,222795.8,293.154,291.744,-0.421151
14161,223728,293.147,291.738,-0.426854
14220,224660.2,293.154,291.736,-0.427028
14279,225592.4,293.147,291.734,-0.424437
14338,226524.6,293.145,291.738,-0.430827
14397,227456.8,293.141,291.743,-0.43238
14456,228389,293.176,291.75,-0.417002
14515,229321.2,293.151,291.772,-0.442213
14574,230253.4,293.149,291.7713,-0.431157
14633,231185.6,293.143,291.755,-0.42961
14692,232117.8,293.16,291.749,-0.423222
14751,233050,293.16,291.751,-0.41562
14810,233982.2,293.16,291.752,-0.42512
14869,234914.4,293.158,291.748,-0.425986
14928,235846.6,293.153,291.741,-0.433762
14975,236589.2,293.156,291.742,-0.438081