File: i_data/water_tests/archive/H2O-NH3_0.19g.csv
HeatFlow :,,,,
 Initial Mass : 190 mg,,,,
 Molar Mass : N/A,,,,
,,,,
Baseline :,,,,
 Initial Mass : 190 mg,,,,
 Molar Mass : N/A,,,,
,,,,
Index,Time(s),Furnace Temperature(K),Sample Temperature(K),HeatFlow(mW)
1,0,293.196,292.184,60.3502
59,916.4,279.055,289.872,10.9566
117,1832.8,270.008,284.974,1.58986
175,2749.2,262.436,279.114,2.41912
233,3665.6,255.483,272.904,3.196069
291,4582,248.948,266.61,3.858722
349,5498.4,242.765,260.377,19.8754
407,6414.8,236.968,254.293,4.328028
465,7331.2,231.259,248.375,3.215991
523,8247.6,225.976,242.651,3.253393
581,9164,220.618,237.099,3.751421
639,10080.4,215.408,231.679,2.823473
697,10996.8,210.477,226.417,2.958071
755,11913.2,205.797,221.339,2.324981
813,12829.6,201.316,216.454,2.370394
871,13746,196.683,211.715,1.248484
929,14662.4,191.78,206.997,0.927799
987,15578.8,186.99,202.292,0.902718
1045,16495.2,182.024,197.57,3.142451
1103,17411.6,177.058,192.853,1.369367
1161,18328,172.266,188.149,2.420619
1219,19244.4,167.576,183.466,3.102065
1277,20160.8,162.711,178.804,3.553364
1335,21077.2,158.525,174.217,3.4946
1393,21993.6,154.497,169.798,2.976211
1451,22910,150.339,165.506,3.42526
1509,23826.4,146.55,161.311,4.000264
1567,24742.8,142.922,157.276,4.108987
1625,25659.2,138.981,153.32,3.833024
1683,26575.6,135.286,149.437,4.412169
1741,27492,131.345,145.612,4.283068
1799,28408.4,127.56,141.78,4.154191
1857,29324.8,123.978,138.018,4.643712
1915,30241.2,120.725,134.362,4.823652
1973,31157.6,117.592,130.818,4.357823
2031,32074,114.672,127.417,4.5382
2089,32990.4,112.163,124.176,4.375894
2147,33906.8,109.761,121.121,4.096905
2205,34823.2,107.513,118.247,3.931663
2263,35739.6,105.316,115.514,3.67622
2321,36656,103.22,112.926,3.665562
2379,37572.4,101.324,110.461,3.586627
2437,38488.8,99.6262,108.15,3.285652
2495,39405.2,98.1469,106.008,2.758501
2553,40321.6,96.69068,104.014,2.516977
2611,41238,95.4406,102.17,2.230784
2669,42154.4,94.2477,100.465,2.055252
2727,43070.8,93.1695,98.8976,1.623567
2785,43987.2,92.0976,97.4363,1.535877
2843,44903.6,91.2251,96.08811,1.340152
2901,45820,90.3375,94.8559,1.046979
2959,46736.4,89.4814,93.7003,0.960999
3017,47652.8,88.77471,92.6361,0.87917
3075,48569.2,88.0927,91.6574,0.696795
3133,49485.6,87.4508,90.7544,0.737817
3191,50402,86.9264,89.926,0.560359
3249,51318.4,86.4961,89.184,0.475177
3307,52234.8,86.0106,88.5131,0.427583
3365,53151.2,85.6119,87.8937,0.402147
3423,54067.6,85.2285,87.3323,0.345468
3481,54984,84.91178,86.8222,0.383847
3539,55900.4,84.6138,86.36489,0.368174
3597,56816.8,84.2669,85.9378,0.355944
3655,57733.2,84.0223,85.5423,0.313165
3713,58649.6,83.8245,85.1917,0.275928
3771,59566,83.5578,84.8711,0.269807
3829,60482.4,83.3285,84.5682,0.265699
3887,61398.8,83.12612,84.2842,0.261097
3945,62315.2,82.932,84.0251,0.250411
4003,63231.6,82.7773,83.7851,0.240639
4061,64148,82.589,83.5644,0.242781
4119,65064.4,82.4575,83.3563,0.228815
4177,65980.8,82.3504,83.17095,0.217592
4235,66897.2,82.2277,83.0051,0.207521
4293,67813.6,82.1428,82.8529,0.201521
4351,68730,82.0569,82.7181,0.192487
4409,69646.4,81.9577,82.5936,0.201691
4467,70562.8,81.8637,82.4777,0.188851
4525,71479.2,81.8058,82.3693,0.181437
4583,72395.6,81.7606,82.2754,0.176052
4641,73312,81.6861,82.19306,0.170235
4699,74228.4,81.6366,82.1119,0.167736
4757,75144.8,81.6227,82.04447,0.171006
4815,76061.2,81.5788,81.9893,0.182073
4873,76977.6,81.552,81.9352,0.166633
4931,77894,81.5373,81.8909,0.170386
4989,78810.4,81.5164,81.8548,0.154893
5047,79726.8,81.4847,81.8175,0.163148
5105,80643.2,83.1812,81.9494,-0.038109
5163,81559.6,84.7091,82.49,-0.226273
5221,82476,86.2525,83.2803,-0.351105
5279,83392.4,87.7801,84.2549,-0.43865
5337,84308.8,89.3087,85.3645,-0.502014
5395,85225.2,90.84162,86.5676,-0.560056
5453,86141.6,92.3639,87.8431,-0.599099
5511,87058,93.898,89.1687,-0.627223
5569,87974.4,95.4243,90.5302,-0.655465
5627,88890.8,96.9479,91.9224,-0.677522
5685,89807.2,98.4885,93.3334,-0.695319
5743,90723.6,100.013,94.7613,-0.703923
5801,91640,101.535,96.1972,-0.719361
5859,92556.4,103.076,97.6501,-0.728656
5917,93472.8,104.599,99.1061,-0.735316
5975,94389.2,106.119,100.571,-0.744315
6033,95305.6,107.651,102.039,-0.752154
6091,96222,109.185,103.51,-0.756049
6149,97138.4,110.696,104.985,-0.757595
6207,98054.8,112.241,106.466,-0.769066
6265,98971.2,113.76,107.946,-0.772188
6323,99887.6,115.285,109.434,-0.778167
6381,100804,116.82,110.922,-0.780311
6439,101720.4,118.345,112.41,-0.772822
6497,102636.8,119.857,113.904,-0.786154
6555,103553.2,121.411,115.398,-0.781745
6613,104469.6,122.921,116.895,-0.786533
6671,105386,124.443,118.396,-0.786836
6729,106302.4,125.981,119.897,-0.788719
6787,107218.8,127.517,121.395,-0.780949
6845,108135.2,129.044,122.901,-0.787147
6903,109051.6,130.547,124.407,-0.790187
6961,109968,132.089,125.913,-0.777196
7019,110884.4,133.628,127.421,-0.781394
7077,111800.8,135.133,128.933,-0.787523
7135,112717.2,136.676,130.437,-0.772239
7193,113633.6,138.182,131.947,-0.779112
7251,114550,139.73,133.461,-0.773816
7309,115466.4,141.259,134.97,-0.761545
7367,116382.8,142.755,136.487,-0.764005
7425,117299.2,144.314,138.002,-0.745518
7483,118215.6,145.839,139.519,-0.7441
7541,119132,147.341,141.037,-0.740119
7599,120048.4,148.896,142.559,-0.717584
7657,120964.8,150.416,144.082,-0.714966
7715,121881.2,151.952,145.603,-0.692826
7773,122797.6,153.453,147.127,-0.678883
7831,123714,155,148.651,-0.648055
7889,124630.4,156.517,150.176,-0.625348
7947,125546.8,158.058,151.697,-0.60027
8005,126463.2,159.572,153.221,-0.563799
8063,127379.6,161.103,154.75,-0.532805
8121,128296,162.646,156.276,-0.497256
8179,129212.4,164.161,157.804,-0.46814
8237,130128.8,165.703,159.335,-0.407634
8295,131045.2,167.204,160.867,-0.386576
8353,131961.6,168.76,162.393,-0.344275
8411,132878,170.281,163.924,-0.338346
8469,133794.4,171.789,165.454,-0.302143
8527,134710.8,173.331,166.985,-0.284119
8585,135627.2,174.867,168.513,-0.249248
8643,136543.6,176.397,170.047,-0.247516
8701,137460,177.899,171.575,-0.181066
8759,138376.4,179.423,173.108,-0.15797
8817,139292.8,180.978,174.638,-0.104148
8875,140209.2,182.499,176.169,-0.036569
8933,141125.6,184.006,177.701,-0.007403
8991,142042,185.534,179.234,0.004064
9049,142958.4,187.085,180.764,-0.042767
9107,143874.8,188.609,182.296,0.030314
9165,144791.2,190.124,183.827,0.012412
9223,145707.6,191.639,185.358,0.056448
9281,146624,193.184,186.8897,0.039365
9339,147540.4,194.717,188.422,0.123777
9397,148456.8,196.249,189.953,0.035054
9455,149373.2,197.748,191.483,0.09053
9513,150289.6,199.288,193.015,0.10467
9571,151206,200.831,194.547,0.10181
9629,152122.4,202.355,196.079,0.116944
9687,153038.8,203.869,197.614,0.125798
9745,153955.2,205.39,199.146,0.072865
9803,154871.6,206.944,200.678,0.142013
9861,155788,208.459,202.212,0.116349
9919,156704.4,209.988,203.746,0.18603
9977,157620.8,211.499,205.28,0.120871
10035,158537.2,213.047,206.811,0.078133
10093,159453.6,214.578,208.343,0.087523
10151,160370,216.088,209.872,0.018257
10209,161286.4,217.617,211.406,0.082243
10267,162202.8,219.16,212.94,0.019315
10325,163119.2,220.686,214.474,0.015675
10383,164035.6,222.203,216.005,0.05247
10441,164952,223.723,217.54,0.087378
10499,165868.4,225.261,219.073,0.067739
10557,166784.8,226.799,220.605,0.072726
10615,167701.2,228.318,222.139,0.023383
10673,168617.6,229.831,223.675,0.207752
10731,169534,231.366,225.211,-0.006833
10789,170450.4,232.894,226.748,-0.01424
10847,171366.8,234.414,228.285,-0.040083
10905,172283.2,235.958,229.816,-0.092535
10963,173199.6,237.482,231.352,-0.106602
11021,174116,238.999,232.891,-0.106313
11079,175032.4,240.531,234.429,-0.092013
11137,175948.8,242.071,235.97,-0.08354
11195,176865.2,243.578,237.513,-0.106636
11253,177781.6,245.101,239.049,-0.169334
11311,178698,246.65,240.581,-0.15757
11369,179614.4,248.173,242.118,-0.180334
11427,180530.8,249.692,243.659,-0.194354
11485,181447.2,251.221,245.199,-0.17286
11543,182363.6,252.759,246.736,-0.156266
11601,183280,254.281,248.271,-0.179312
11659,184196.4,255.801,249.81,-0.169532
11717,185112.8,257.333,251.348,-0.145229
11775,186029.2,258.853,252.886,-0.121768
11833,186945.6,260.385,254.422,-0.118945
11891,187862,261.918,255.958,-0.101005
11949,188778.4,263.449,257.494,-0.114902
12007,189694.8,264.977,259.034,-0.136409
12065,190611.2,266.501,260.57,-0.144088
12123,191527.6,268.023,262.108,-0.157322
12181,192444,269.557,263.647,-0.159453
12239,193360.4,271.073,265.187,-0.181276
12297,194276.8,272.603,266.725,-0.186456
12355,195193.2,274.126,268.263,-0.203789
12413,196109.6,275.658,269.799,-0.204929
12471,197026,277.189,271.335,-0.230036
12529,197942.4,278.72,272.867,-0.368401
12587,198858.8,280.246,274.398,-53.8803
12645,199775.2,281.774,275.929,-2.764936
12703,200691.6,283.298,277.462,-0.909941
12761,201608,284.822,278.995,-0.856618
12819,202524.4,286.34,280.53,-0.781195
12877,203440.8,287.877,282.061,-0.687577
12935,204357.2,289.412,283.598,-0.607884
12993,205273.6,290.935,285.139,-0.565354
13051,206190,292.465,286.672,-0.561921
13109,207106.4,293.1742,288.139,-0.471331
13167,208022.8,293.155,289.21,-0.317546
13225,208939.2,293.149,289.956,-0.161966
13283,209855.6,293.153,290.474,-0.011924
13341,210772,293.148,290.836,0.08954
13399,211688.4,293.16,291.084,0.148608
13457,212604.8,293.155,291.256,0.193949
13515,213521.2,293.142,291.377,0.22768
13573,214437.6,293.147,291.462,0.258175
13631,215354,293.159,291.518,0.270537
13689,216270.4,293.156,291.558,0.289272
13747,217186.8,293.151,291.583,0.302493
13805,218103.2,293.16,291.605,0.304536
13863,219019.6,293.157,291.62,0.310808
13921,219936,293.149,291.629,0.311836
13979,220852.4,293.154,291.636,0.324849
14037,221768.8,293.156,291.647,0.339144
14095,222685.2,293.149,291.646,0.322214
14153,223601.6,293.143,291.65,0.323537
14211,224518,293.141,291.65,0.323508
14269,225434.4,293.154,291.649,0.329831
14327,226350.8,293.144,291.653,0.325361
14385,227267.2,293.155,291.65,0.329462
14443,228183.6,293.16,291.652,0.333349
14501,229100,293.147,291.648,0.329751
14559,230016.4,293.145,291.649,0.337778
14617,230932.8,293.161,291.651,0.33453
14675,231849.2,293.155,291.651,0.329612
14733,232765.6,293.154,291.649,0.336615
14791,233682,293.144,291.649,0.328829
14849,234598.4,293.141,291.649,0.33483
14907,235514.8,293.155,291.648,0.331329
14965,236431.2,293.147,291.646,0.338902
14975,236589.2,293.148,291.646,0.339847