File: z_unorganized_archive/i_data_processed/old_wt%/0wt%_climb_proc.txt
 Index  Time(s)  Furnace Temperature(K)  Sample Temperature(K)  HeatFlow(mW)  Q_Corrected  Fc
  6001 101400.0              102.133              99.8333     -2.390259    -1.906270 NaN
  6062 102430.9              103.849             100.734     -3.275746    -2.781993 NaN
  6123 103461.8              105.57             101.858     -3.875427    -3.377786 NaN
  6184 104492.7              107.283             103.145     -4.316160    -3.824221 NaN
  6245 105523.6              109             104.543     -4.640173    -4.148044 NaN
  6306 106554.5              110.731             106.025     -4.901321    -4.300383 NaN
  6367 107585.4              112.433             107.564     -5.078364    -4.185086 NaN
  6428 108616.3              114.174             109.141     -5.227443    -4.189891 NaN
  6489 109647.2              115.883             110.748     -5.338996    -4.191216 NaN
  6550 110678.1              117.602             112.386     -5.474490    -4.246408 NaN
  6611 111709.0              119.323             114.034     -5.552299    -4.272269 NaN
  6672 112739.9              121.041             115.696     -5.633107    -4.313928 NaN
  6733 113770.8              122.757             117.372     -5.713611    -4.377513 NaN
  6794 114801.7              124.477             119.052     -5.753051    -4.394004 NaN
  6855 115832.6              126.194             120.738     -5.805220    -4.451269 NaN
  6916 116863.5              127.923             122.423     -5.836612    -4.476989 NaN
  6977 117894.4              129.626             124.116     -5.873017    -4.519204 NaN
  7038 118925.3              131.358             125.81     -5.916151    -4.583663 NaN
  7099 119956.2              133.078             127.508     -5.959930    -4.631657 NaN
  7160 120987.1              134.787             129.212     -6.001565    -4.689716 NaN
  7221 122018.0              136.513             130.914     -6.023690    -4.726833 NaN
  7282 123048.9              138.223             132.613     -6.040437    -4.760877 NaN
  7343 124079.8              139.936             134.312     -6.085630    -4.814425 NaN
  7404 125110.7              141.662             136.007     -6.104265    -4.850121 NaN
  7465 126141.6              143.378             137.71     -6.160478    -4.913589 NaN
  7526 127172.5              145.092             139.412     -6.190338    -4.965489 NaN
  7587 128203.4              146.825             141.12     -6.249281    -5.025667 NaN
  7648 129234.3              148.537             142.829     -6.278421    -5.063082 NaN
  7709 130265.2              150.253             144.541     -6.327178    -5.131771 NaN
  7770 131296.1              151.965             146.258     -6.370986    -5.190087 NaN
  7831 132327.0              153.678             147.974     -6.402235    -5.248633 NaN
  7892 133357.9              155.414             149.685     -6.418610    -5.271633 NaN
  7953 134388.8              157.13             151.399     -6.447094    -5.337562 NaN
  8014 135419.7              158.848             153.114     -6.463754    -5.366503 NaN
  8075 136450.6              160.544             154.83     -6.498915    -5.416792 NaN
  8136 137481.5              162.29             156.54     -6.501771    -5.437093 NaN
  8197 138512.4              164.001             158.252     -6.533420    -5.502694 NaN
  8258 139543.3              165.722             159.966     -6.578221    -5.572398 NaN
  8319 140574.2              167.437             161.686     -6.610796    -5.649523 NaN
  8380 141605.1              169.156             163.409     -6.653278    -5.715473 NaN
  8441 142636.0              170.874             165.131     -6.630506    -5.702644 NaN
  8502 143666.9              172.595             166.855     -6.695162    -5.869879 NaN
  8563 144697.8              174.302             168.58     -6.732358    -5.956656 NaN
  8624 145728.7              176.029             170.302     -6.703716    -5.976443 NaN
  8685 146759.6              177.749             172.02     -6.740594    -6.071164 NaN
  8746 147790.5              179.467             173.738     -6.752963    -6.160635 NaN
  8807 148821.4              181.182             175.452     -6.736485    -6.097608 1.0
  8868 149852.3              182.907             177.175     -6.763795    -6.194413 1.0
  8929 150883.2              184.621             178.902     -6.864633    -6.344400 1.0
  8990 151914.1              186.34             180.631     -6.834854    -6.358144 1.0
  9051 152945.0              188.054             182.365     -6.887682    -6.478369 1.0
  9112 153975.9              189.775             184.102     -6.885691    -6.465838 1.0
  9173 155006.8              191.496             185.844     -6.930624    -6.550110 1.0
  9234 156037.7              193.204             187.585     -6.943878    -6.559104 1.0
  9295 157068.6              194.923             189.319     -7.004250    -6.628550 1.0
  9356 158099.5              196.646             191.054     -6.832151    -6.530975 1.0
  9417 159130.4              198.369             192.794     -6.862269    -6.879203 1.0
  9478 160161.3              200.078             194.53     -6.754696    -6.638024 1.0
  9539 161192.2              201.793             196.265     -6.978698    -6.909384 1.0
  9600 162223.1              203.514             197.994     -6.984374    -6.795184 1.0
  9661 163254.0              205.235             199.722     -6.925890    -6.809127 1.0
  9722 164284.9              206.95             201.455     -6.995889    -7.039920 1.0
  9783 165315.8              208.678             203.185     -6.829938    -6.832372 1.0
  9844 166346.7              210.387             204.915     -6.888078    -6.950875 1.0
  9905 167377.6              212.106             206.644     -7.004165    -7.044764 1.0
  9966 168408.5              213.827             208.374     -7.087152    -7.249009 1.0
 10027 169439.4              215.543             210.104     -7.014596    -7.113786 1.0
 10088 170470.3              217.264             211.835     -7.217741    -7.412870 1.0
 10149 171501.2              218.979             213.566     -7.034453    -7.304162 1.0
 10210 172532.1              220.697             215.295     -7.018314    -7.180906 1.0
 10271 173563.0              222.418             217.025     -7.203737    -7.495258 1.0
 10332 174593.9              224.136             218.755     -7.226947    -7.684757 1.0
 10393 175624.8              225.852             220.483     -7.151727    -7.554285 1.0
 10454 176655.7              227.572             222.213     -7.526021    -7.910927 1.0
 10515 177686.6              229.29             223.941     -6.981232    -7.284101 1.0
 10576 178717.5              231.007             225.668     -7.415080    -7.960724 1.0
 10637 179748.4              232.725             227.397     -7.263950    -7.661456 1.0
 10698 180779.3              234.445             229.123     -7.348082    -7.813072 1.0
 10759 181810.2              236.161             230.85     -7.546215    -8.066448 1.0
 10820 182841.1              237.88             232.576     -7.616019    -7.975152 1.0
 10881 183872.0              239.599             234.303     -7.589386    -8.069183 1.0
 10942 184902.9              241.316             236.031     -7.609304    -8.110915 1.0
 11003 185933.8              243.032             237.757     -7.632844    -8.181410 1.0
 11064 186964.7              244.748             239.482     -7.888097    -8.238596 1.0
 11125 187995.6              246.471             241.204     -7.806669    -8.223879 1.0
 11186 189026.5              248.2             242.93     -7.823171    -8.167315 1.0
 11247 190057.4              249.9             244.66     -7.996912    -8.272721 1.0
 11308 191088.3              251.628             246.384     -7.824895    -8.285847 1.0
 11369 192119.2              253.341             248.111     -7.877502    -8.341817 1.0
 11430 193150.1              255.06             249.836     -8.112126    -8.529469 1.0
 11491 194181.0              256.777             251.564     -8.125942    -8.528186 1.0
 11552 195211.9              258.497             253.287     -8.080230    -8.486042 1.0
 11613 196242.8              260.22             255.009     -8.182133    -8.576628 1.0
 11674 197273.7              261.931             256.736     -8.164141    -8.582870 1.0
 11735 198304.6              263.656             258.461     -8.252374    -8.724093 1.0
 11796 199335.5              265.369             260.187     -8.328786    -8.818672 1.0
 11857 200366.4              267.09             261.911     -8.387745    -8.904519 1.0
 11918 201397.3              268.806             263.637     -8.428837    -8.905423 1.0
 11979 202428.2              270.53             265.364     -8.571488    -9.029898 1.0
 12040 203459.1              272.244             267.092     -8.655515    -9.130950 1.0
 12101 204490.0              273.963             268.82     -8.735051    -9.194217 1.0
 12162 205520.9              275.682             270.546     -8.770614    -9.286289 1.0
 12223 206551.8              277.4             272.272     -8.923630    -9.421291 1.0
 12284 207582.7              279.114             273.998    -52.4285   -52.9319 NaN
 12345 208613.6              280.835             275.702   -260.065  -260.538 NaN
 12406 209644.5              282.548             277.384   -391.509  -392.014 NaN
 12467 210675.4              284.267             279.081   -188.909  -189.378 NaN
 12528 211706.3              285.989             280.823    -22.1322   -22.6189 NaN
 12589 212737.2              287.711             282.567    -17.9582   -18.4489 NaN
 12650 213768.1              289.425             284.308    -17.7954   -18.3038 NaN
 12711 214799.0              291.129             286.037    -17.6627   -18.2075 NaN
 12772 215829.9              292.858             287.752    -17.4649   -18.0368 NaN
 12833 216860.8              294.581             289.469    -17.4201   -18.0237 NaN
 12894 217891.7              296.298             291.188    -17.3829   -18.0594 NaN
 12900 217993.1              296.467             291.357    -17.3673   -18.0449 NaN