File: z_unorganized_archive/i_data_processed/old_wt%/1.62wt%_climb_proc.txt
 Index  Time(s)  Furnace Temperature(K)  Sample Temperature(K)  HeatFlow(mW)  Q_Corrected       Fc
  6001 101400.0              106.087             106.285     -0.475387     0.008602      NaN
  6063 102447.8              106.103             106.276     -0.518290    -0.016176      NaN
  6125 103495.6              106.115             106.276     -0.557965    -0.072693      NaN
  6187 104543.4              107.147             106.311     -0.969774    -0.468821      NaN
  6249 105591.2              109.068             106.823     -3.541388    -3.038053      NaN
  6311 106639.0              110.822             107.636     -4.960962    -4.305087      NaN
  6373 107686.8              112.591             108.682     -6.124328    -5.216575      NaN
  6435 108734.6              114.387             109.925     -7.154055    -6.096041      NaN
  6497 109782.4              116.126             111.317     -7.917578    -6.758182      NaN
  6559 110830.2              117.892             112.824     -8.569726    -7.340250      NaN
  6621 111878.0              119.626             114.423     -9.131388    -7.850398      NaN
  6683 112925.8              121.36             116.073     -9.495827    -8.176972      NaN
  6745 113973.6              123.105             117.752     -9.819376    -8.478051      NaN
  6807 115021.4              124.844             119.448    -10.1908    -8.838558      NaN
  6869 116069.2              126.591             121.156    -10.5786    -9.227882      NaN
  6931 117117.0              128.341             122.869    -10.617    -9.270836      NaN
  6993 118164.8              130.085             124.587    -10.6235    -9.283447      NaN
  7055 119212.6              131.838             126.313    -10.7314    -9.393428      NaN
  7117 120260.4              133.57             128.037    -10.7551    -9.435406      NaN
  7179 121308.2              135.315             129.765    -10.8649    -9.553478      NaN
  7241 122356.0              137.061             131.485    -10.8989    -9.596663      NaN
  7303 123403.8              138.823             133.207    -10.985    -9.701061      NaN
  7365 124451.6              140.567             134.935    -11.0978    -9.834838      NaN
  7427 125499.4              142.313             136.671    -11.194    -9.932385      NaN
  7489 126547.2              144.06             138.404    -11.2904   -10.0534      NaN
  7551 127595.0              145.792             140.138    -11.3604   -10.132      NaN
  7613 128642.8              147.551             141.869    -11.4452   -10.2218      NaN
  7675 129690.6              149.291             143.606    -11.5335   -10.3268      NaN
  7737 130738.4              151.037             145.346    -11.5607   -10.3742      NaN
  7799 131786.2              152.779             147.089    -11.4517   -10.2887      NaN
  7861 132834.0              154.532             148.83    -11.0151    -9.859949      NaN
  7923 133881.8              156.283             150.571     -9.950495    -8.837118      NaN
  7985 134929.6              158.026             152.316     -7.834277    -6.717146      NaN
  8047 135977.4              159.774             154.067     -5.413876    -4.315888      NaN
  8109 137025.2              161.521             155.818     -4.566216    -3.507326      NaN
  8171 138073.0              163.264             157.565     -7.971480    -6.919915      NaN
  8233 139120.8              165.009             159.313    -11.3601   -10.343      NaN
  8295 140168.6              166.766             161.063    -11.9779   -10.9951      NaN
  8357 141216.4              168.497             162.812    -12.017   -11.1006      NaN
  8419 142264.2              170.246             164.562    -12.1204   -11.1967      NaN
  8481 143312.0              171.998             166.312    -12.2416   -11.3747      NaN
  8543 144359.8              173.741             168.064    -12.3352   -11.5282      NaN
  8605 145407.6              175.489             169.815    -12.7843   -12.0044      NaN
  8667 146455.4              177.24             171.563    -26.1479   -25.4743      NaN
  8729 147503.2              178.988             173.318     -7.396741    -6.758514      NaN
  8791 148551.0              180.733             175.07    -12.742   -12.1447      NaN
  8853 149598.8              182.472             176.824    -32.9881   -32.3293 0.950297
  8915 150646.6              184.221             178.576    -15.6708   -15.1038 0.949819
  8977 151694.4              185.969             180.332    -13.5755   -13.0793 0.949331
  9039 152742.2              187.709             182.088    -13.4615   -13.0327 0.948832
  9101 153790.0              189.465             183.843    -13.6903   -13.2702 0.948322
  9163 154837.8              191.214             185.599    -13.7688   -13.4303 0.947800
  9225 155885.6              192.957             187.354    -13.9318   -13.4991 0.947265
  9287 156933.4              194.695             189.112    -13.9954   -13.6692 0.946715
  9349 157981.2              196.445             190.866    -13.9608   -13.6609 0.946151
  9411 159029.0              198.191             192.621    -14.1589   -14.1349 0.945570
  9473 160076.8              199.938             194.376    -14.1232   -13.9948 0.944971
  9535 161124.6              201.68             196.133    -14.3244   -14.2605 0.944352
  9597 162172.4              203.428             197.888    -14.3575   -14.1928 0.943713
  9659 163220.2              205.176             199.643    -14.4829   -14.3778 0.943052
  9721 164268.0              206.919             201.399    -14.5751   -14.6366 0.942365
  9783 165315.8              208.671             203.154    -14.8515   -14.8539 0.941654
  9845 166363.6              210.417             204.903    -14.9618   -15.0322 0.940916
  9907 167411.4              212.168             206.655    -14.9493   -14.995 0.940146
  9969 168459.2              213.903             208.41    -14.9932   -15.156 0.939341
 10031 169507.0              215.655             210.165    -15.1313   -15.2532 0.938500
 10093 170554.8              217.406             211.92    -15.5714   -15.7359 0.937618
 10155 171602.6              219.151             213.679    -15.582   -15.861 0.936691
 10217 172650.4              220.899             215.44    -15.8053   -15.8619 0.935713
 10279 173698.2              222.642             217.204    -15.8724   -16.144 0.934681
 10341 174746.0              224.392             218.967    -16.1543   -16.4655 0.933590
 10403 175793.8              226.137             220.728    -16.1269   -16.5391 0.932434
 10465 176841.6              227.88             222.488    -16.3002   -16.7568 0.931207
 10527 177889.4              229.626             224.25    -16.6922   -17.0607 0.929897
 10589 178937.2              231.382             226.011    -16.9071   -17.3821 0.928495
 10651 179985.0              233.118             227.773    -16.9829   -17.2618 0.926991
 10713 181032.8              234.868             229.531    -17.4522   -17.8391 0.925374
 10775 182080.6              236.612             231.29    -17.7451   -18.1789 0.923624
 10837 183128.4              238.36             233.046    -18.0101   -18.4342 0.921726
 10899 184176.2              240.107             234.805    -18.3291   -18.7969 0.919654
 10961 185224.0              241.85             236.564    -18.5614   -18.8625 0.917381
 11023 186271.8              243.598             238.322    -19.192   -20.0186 0.914877
 11085 187319.6              245.343             240.079    -19.6004   -19.9747 0.912104
 11147 188367.4              247.091             241.836    -20.0436   -20.4799 0.909014
 11209 189415.2              248.838             243.591    -20.9236   -21.2946 0.905548
 11271 190463.0              250.583             245.348    -21.7081   -22.0295 0.901631
 11333 191510.8              252.331             247.105    -22.6488   -23.1526 0.897173
 11395 192558.6              254.078             248.861    -23.6007   -24.0058 0.892062
 11457 193606.4              255.82             250.618    -24.9698   -25.4868 0.886154
 11519 194654.2              257.567             252.371    -26.3928   -26.6712 0.879271
 11581 195702.0              259.315             254.126    -28.3081   -28.6497 0.871160
 11643 196749.8              261.062             255.881    -30.8492   -31.4008 0.861496
 11705 197797.6              262.806             257.635    -34.0925   -34.5166 0.849836
 11767 198845.4              264.555             259.391    -38.5133   -38.9545 0.835502
 11829 199893.2              266.3             261.147    -44.4108   -44.9358 0.817525
 11891 200941.0              268.046             262.9    -53.0714   -53.4889 0.794366
 11953 201988.8              269.792             264.65    -65.8838   -66.3722 0.763283
 12015 203036.6              271.54             266.399    -85.6116   -86.1615 0.718898
 12077 204084.4              273.286             268.146   -116.571  -116.976 0.649158
 12139 205132.2              275.033             269.889   -166.177  -166.664 0.518585
 12201 206180.0              276.775             271.624   -245.917  -246.436 0.145881
 12263 207227.8              278.525             273.348   -342.216  -342.724      NaN
 12325 208275.6              280.267             275.072   -371.784  -372.316      NaN
 12387 209323.4              282.019             276.83    -70.4888   -70.9513      NaN
 12449 210371.2              283.77             278.611    -36.643   -37.105      NaN
 12511 211419.0              285.506             280.385    -35.1729   -35.6498      NaN
 12573 212466.8              287.258             282.149    -34.892   -35.3828      NaN
 12635 213514.6              289.004             283.911    -34.785   -35.2831      NaN
 12697 214562.4              290.752             285.67    -34.7313   -35.2755      NaN
 12759 215610.2              292.495             287.427    -34.6049   -35.1805      NaN
 12821 216658.0              294.239             289.181    -34.5597   -35.151      NaN
 12883 217705.8              295.986             290.933    -34.4366   -35.0907      NaN
 12900 217993.1              296.462             291.413    -34.3536   -35.0312      NaN