File: z_unorganized_archive/i_data_processed/old_wt%/1.6wt%_peaks.txt
 Index  Time(s)  Furnace Temperature(K)  Sample Temperature(K)  HeatFlow(mW)  Q_Corrected
  6010 101552.1              106.088             106.283     -0.474754     0.024143
  6164 104154.7              106.135             106.269     -0.494004     0.010167
  6894 116491.7              127.289             121.845    -10.6461    -9.299125
  7727 130569.4              150.756             145.066    -11.5726   -10.3837
  8095 136788.6              161.132             155.422     -4.505824    -3.441261
  8446 142720.5              171.012             165.323    -12.0113   -11.0828
  8667 146455.4              177.24             171.563    -26.1479   -25.4743
  8702 147046.9              178.22             172.554     -2.261730    -1.642283
  8868 149852.3              182.899             177.246    -66.3539   -65.7846
  9023 152471.8              187.262             181.635    -13.5348   -12.9827
  9510 160702.1              200.986             195.424    -14.3366   -14.3717
  9575 161800.6              202.815             197.264    -14.2738   -14.0184
  9800 165603.1              209.144             203.636    -14.9411   -15.2468
  9878 166921.3              211.348             205.835    -14.8878   -14.8427
 10420 176081.1              226.618             221.211    -16.0172   -16.3026
 12306 207954.5              279.734             274.544   -389.407  -389.942