File: z_unorganized_archive/i_data_processed/old_wt%/7.85wt%_peaks.txt
 Index  Time(s)  Furnace Temperature(K)  Sample Temperature(K)  HeatFlow(mW)  Q_Corrected
  7974 134743.7              157.724             151.985     44.9057    46.0166
  8615 145576.6              175.769             170.097    -13.9961   -13.2849
  8651 146185.0              176.789             171.115    -10.7385    -9.987216
  8892 150257.9              183.578             177.901   -166.933  -166.46
 10459 176740.2              227.664             222.291    -23.6709   -24.1189
 10538 178075.3              229.87             224.324    -22.0657   -22.3411
 11851 200265.0              266.922             261.735   -122.433  -123.02
 11892 200957.9              268.074             262.893   -119.348  -119.771
 11914 201329.7              268.695             263.514   -120.288  -120.767