File: i_data/46C/H2O-NH3_3.8153g.csv
H2O-NH3 15wt% Specific Heat - Large HF,,,,
Creation Date : 10/14/2022 1:35:53 PM,,,,
User : admin,,,,
,,,,
HeatFlow :,,,,
 Initial Mass : 3815.3 mg,,,,
 Molar Mass : 17 g/mol,,,,
,,,,
Index,Time(s),Furnace Temperature(K),Sample Temperature(K),HeatFlow(mW)
1,0,318.911,319.008,-1368.49
58,1008.9,317.949,318.741,-49.6402
115,2017.8,316.483,318.229,2.680578
172,3026.7,312.37,316.951,17.5398
229,4035.6,304.884,313.949,46.1515
286,5044.5,296.862,309.205,75.4389
343,6053.4,289.126,303.395,93.9616
400,7062.3,281.871,297.058,102.9
457,8071.2,275.106,290.601,104.205
514,9080.1,268.715,284.153,104.059
571,10089,262.638,277.836,101.501
628,11097.9,256.842,271.713,98.00612
685,12106.8,251.281,265.802,93.6495
742,13115.7,245.973,260.108,89.8319
799,14124.6,240.844,254.626,85.5927
856,15133.5,235.9028,249.339,82.1799
913,16142.4,231.163,244.245,79.1112
970,17151.3,226.61,239.352,426.761
1027,18160.2,222.27,234.654,144.111
1084,19169.1,218.101,230.121,97.78266
1141,20178,214.078,225.755,81.1543
1198,21186.9,210.246,221.56,70.0049
1255,22195.8,206.556,217.531,61.1517
1312,23204.7,202.991,213.656,54.7286
1369,24213.6,199.538,209.915,49.9394
1426,25222.5,196.218,206.306,45.5381
1483,26231.4,193.048,202.83,40.3642
1540,27240.3,190,199.485,38.3917
1597,28249.2,187.063,196.265,35.001
1654,29258.1,184.232,193.163,32.0956
1711,30267,181.505,190.172,29.8974
1768,31275.9,178.873,187.288,27.9704
1825,32284.8,176.335,184.505,26.0525
1882,33293.7,173.883,181.82,24.2459
1939,34302.6,171.534,179.23,22.8312
1996,35311.5,169.26,176.732,21.5306
2053,36320.4,167.058,174.317,19.9356
2110,37329.3,164.923,171.983,19.5921
2167,38338.2,162.848,169.723,18.4285
2224,39347.1,160.84,167.533,17.1035
2281,40356,158.899,165.411,16.786
2338,41364.9,157.037,163.359,16.2403
2395,42373.8,155.217,161.372,15.4406
2452,43382.7,153.469,159.448,14.4061
2509,44391.6,151.8,157.591,13.5184
2566,45400.5,150.174,155.796,13.2177
2623,46409.4,148.604,154.061,12.5753
2680,47418.3,147.079,152.381,12.1353
2737,48427.2,145.601,150.755,11.6591
2794,49436.1,144.032,149.161,10.9138
2851,50445,142.605,147.592,10.9479
2908,51453.9,141.31,146.089,10.4022
2965,52462.8,140.05,144.65,9.547616
3022,53471.7,138.813,143.265,9.512061
3079,54480.6,137.609,141.927,8.808916
3136,55489.5,136.432,140.633,8.567897
3193,56498.4,135.263,139.372,8.145133
3250,57507.3,134.148,138.144,7.955184
3307,58516.2,133.072,136.955,7.807151
3364,59525.1,132.058,135.806,7.420591
3421,60534,131.087,134.7,7.07907
3478,61542.9,130.121,133.634,6.880207
3535,62551.8,129.123,132.591,6.647679
3592,63560.7,128.184,131.568,6.503336
3649,64569.6,127.308,130.577,6.185239
3706,65578.5,126.446,129.622,5.785912
3763,66587.4,125.626,128.696,5.578496
3820,67596.3,124.841,127.806,5.305318
3877,68605.2,124.056,126.945,5.16382
3934,69614.1,123.296,126.106,4.878159
3991,70623,122.559,125.294,4.72391
4048,71631.9,121.816,124.501,4.581508
4105,72640.8,121.108,123.726,4.419437
4162,73649.7,120.43,122.972,4.302293
4219,74658.6,119.761,122.24,4.116912
4276,75667.5,119.168,121.536,3.898391
4333,76676.4,118.601,120.867,3.683509
4390,77685.3,118.075,120.231,3.425779
4447,78694.2,117.559,119.626,3.273517
4504,79703.1,117.052,119.048,3.245704
4561,80712,116.546,118.486,2.932761
4618,81720.9,116.069,117.944,2.754224
4675,82729.8,115.541,117.415,2.65451
4732,83738.7,115.06,116.888,2.562938
4789,84747.6,114.66,116.386,2.362719
4846,85756.5,114.234,115.908,2.24013
4903,86765.4,113.851,115.449,2.090726
4960,87774.3,113.518,115.017,1.917533
5017,88783.2,113.21,114.617,1.712235
5074,89792.1,112.943,114.245,1.496137
5131,90801,112.678,113.904,1.311312
5188,91809.9,112.435,113.585,1.183625
5245,92818.8,112.217,113.29,1.046684
5302,93827.7,112.027,113.02,0.893182
5359,94836.6,111.829,112.769,0.785025
5416,95845.5,111.647,112.535,0.695335
5473,96854.4,111.455,112.314,0.620893
5530,97863.3,111.282,112.102,0.558428
5587,98872.2,111.138,111.906,0.474553
5644,99881.1,110.99,111.723,0.392245
5701,100890,110.85,111.55,0.341683
5758,101898.9,110.715,111.386,0.296518
5815,102907.8,110.58,111.23,0.244758
5872,103916.7,110.436,111.08,0.212624
5929,104925.6,110.265,110.926,0.237887
5986,105934.5,110.091,110.768,0.246513
6043,106943.4,111.184,110.675,-0.355628
6100,107952.3,113.038,111.086,-2.851001
6157,108961.2,114.727,111.839,-4.451657
6214,109970.1,116.417,112.839,-5.669496
6271,110979,118.1,114.019,-6.65069
6328,111987.9,119.784,115.3328,-7.473146
6385,112996.8,121.463,116.739,-8.30247
6442,114005.7,123.147,118.217,-9.336958
6499,115014.6,124.834,119.746,-10.8962
6556,116023.5,126.511,121.311,-12.5836
6613,117032.4,128.196,122.902,-11.9028
6670,118041.3,129.878,124.514,-11.5067
6727,119050.2,131.559,126.141,-11.5718
6784,120059.1,133.241,127.778,-11.6817
6841,121068,134.922,129.422,-11.8016
6898,122076.9,136.606,131.075,-11.9297
6955,123085.8,138.286,132.733,-12.0149
7012,124094.7,139.967,134.394,-12.1024
7069,125103.6,141.641,136.058,-12.1625
7126,126112.5,143.332,137.715,-12.2176
7183,127121.4,145.015,139.374,-12.2606
7240,128130.3,146.702,141.039,-12.355
7297,129139.2,148.373,142.708,-12.3633
7354,130148.1,150.054,144.375,-12.1536
7411,131157,151.733,146.049,-11.0987
7468,132165.9,153.427,147.727,-6.608346
7525,133174.8,155.105,149.407,8.528462
7582,134183.7,156.776,151.097,45.12898
7639,135192.6,158.472,152.787,57.8667
7696,136201.5,160.14,154.47,11.5427
7753,137210.4,161.825,156.146,-7.097369
7810,138219.3,163.512,157.822,-9.490192
7867,139228.2,165.196,159.505,-9.965048
7924,140237.1,166.877,161.19,-10.1305
7981,141246,168.559,162.876,-10.335
8038,142254.9,170.238,164.563,-10.4315
8095,143263.8,171.917,166.25,-10.6202
8152,144272.7,173.596,167.938,-10.9715
8209,145281.6,175.271,169.621,-11.7503
8266,146290.5,176.966,171.304,-10.5096
8323,147299.4,178.639,172.99,-10.8484
8380,148308.3,180.328,174.675,-11.6069
8437,149317.2,182.012,176.36,-58.09268
8494,150326.1,183.687,178.029,-198.599
8551,151335,185.368,179.714,-25.911
8608,152343.9,187.046,181.415,-16.19613
8665,153352.8,188.738,183.111,-16.1599
8722,154361.7,190.412,184.804,-16.1235
8779,155370.6,192.09,186.499,-16.4579
8836,156379.5,193.778,188.19,-16.6355
8893,157388.4,195.461,189.886,-16.9107
8950,158397.3,197.14,191.576,-17.0942
9007,159406.2,198.824,193.269,-17.3176
9064,160415.1,200.505,194.96,-17.5828
9121,161424,202.18,196.65,-17.7554
9178,162432.9,203.87,198.339,-18.1993
9235,163441.8,205.547,200.028,-18.31427
9292,164450.7,207.235,201.721,-18.362
9349,165459.6,208.907,203.413,-18.9072
9406,166468.5,210.589,205.103,-19.52796
9463,167477.4,212.278,206.793,-19.9935
9520,168486.3,213.957,208.486,-20.1903
9577,169495.2,215.64,210.182,-20.5634
9634,170504.1,217.32,211.877,-21.3154
9691,171513,218.995,213.568,-21.8123
9748,172521.9,220.686,215.261,-22.2508
9805,173530.8,222.364,216.958,-23.07691
9862,174539.7,224.047,218.653,-23.52428
9919,175548.6,225.727,220.35,-24.3067
9976,176557.5,227.406,222.044,-25.1228
10033,177566.4,229.089,223.737,-25.8258
10090,178575.3,230.773,225.43,-26.7549
10147,179584.2,232.453,227.124,-28.0722
10204,180593.1,234.13,228.816,-29.18422
10261,181602,235.816,230.506,-30.6291
10318,182610.9,237.497,232.197,-32.0175
10375,183619.8,239.178,233.887,-33.5277
10432,184628.7,240.859,235.577,-35.076
10489,185637.6,242.542,237.266,-37.5159
10546,186646.5,244.226,238.957,-39.9533
10603,187655.4,245.903,240.649,-42.5925
10660,188664.3,247.584,242.3384,-45.6048
10717,189673.2,249.266,244.026,-49.0578
10774,190682.1,250.95,245.714,-53.0102
10831,191691,252.63,247.403,-57.7536
10888,192699.9,254.31,249.093,-62.6327
10945,193708.8,255.993,250.779,-65.7931
11002,194717.7,257.674,252.469,-49.6135
11059,195726.6,259.353,254.162,-30.0703
11116,196735.5,261.039,255.855,-25.6398
11173,197744.4,262.718,257.547,-25.4187
11230,198753.3,264.397,259.237,-25.4669
11287,199762.2,266.086,260.926,-25.5822
11344,200771.1,267.76,262.616,-25.6222
11401,201780,269.439,264.304,-25.71271
11458,202788.9,271.125,265.989,-25.6827
11515,203797.8,272.806,267.673,-25.7773
11572,204806.7,274.486,269.357,-25.9274
11629,205815.6,276.174,271.045,-26.0759
11686,206824.5,277.857,272.735,-26.20752
11743,207833.4,279.533,274.423,-26.2301
11800,208842.3,281.214,276.112,-26.2842
11857,209851.2,282.895,277.798,-26.3897
11914,210860.1,284.583,279.485,-26.4078
11971,211869,286.261,281.178,-26.5838
12028,212877.9,287.94,282.866,-26.5764
12085,213886.8,289.626,284.553,-26.6114
12142,214895.7,291.3,286.24,-26.6974
12199,215904.6,292.989,287.928,-26.8218
12256,216913.5,294.666,289.615,-26.8335
12313,217922.4,296.348,291.3,-26.8472
12370,218931.3,298.032,292.978,-26.8177
12427,219940.2,299.711,294.645,-26.6994
12484,220949.1,301.396,296.33,-27.0094
12541,221958,303.075,298.027,-27.1935
12598,222966.9,304.758,299.721,-27.1504
12655,223975.8,306.441,301.417,-27.1768
12712,224984.7,308.119,303.107,-27.0066
12769,225993.6,309.802,304.794,-26.8946
12826,227002.5,311.482,306.487,-26.9954
12883,228011.4,313.163,308.18,-27.0315
12940,229020.3,314.847,309.872,-27.0528
12997,230029.2,316.528,311.564,-27.0345
13054,231038.1,318.209,313.256,-27.0777
13111,232047,319.192,314.896,-26.6863
13168,233055.9,319.165,316.054,-19.0937
13225,234064.8,319.16,316.81,-12.34669
13282,235073.7,319.157,317.303,-7.859412
13339,236082.6,319.152,317.625,-4.962625
13396,237091.5,319.153,317.832,-2.922176
13453,238100.4,319.152,317.968,-1.604465
13510,239109.3,319.1505,318.056,-0.728274
13567,240118.2,319.151,318.112,-0.123174
13624,241127.1,319.152,318.149,-0.015354
13681,242136,319.151,318.175,0.372542
13738,243144.9,319.147,318.19,0.57416
13795,244153.8,319.15,318.199,0.714533
13852,245162.7,319.148,318.205,0.800408
13909,246171.6,319.151,318.208,0.822171
13966,247180.5,319.15,318.213,0.821324
14023,248189.4,319.143,318.213,0.84832
14080,249198.3,319.148,318.21,0.904674
14137,250207.2,319.156,318.207,0.950905
14194,251216.1,319.148,318.211,0.863843
14251,252225,319.15,318.211,0.898937
14308,253233.9,319.151,318.214,0.885269
14365,254242.8,319.152,318.214,0.943645
14422,255251.7,319.149,318.214,0.949888
14479,256260.6,319.153,318.216,0.956298
14536,257269.5,319.151,318.219,0.932338
14593,258278.4,319.147,318.219,0.954608
14650,259287.3,319.148,318.22,0.983458
14707,260296.2,319.148,318.219,1.012816
14764,261305.1,319.15,318.217,1.050611
14821,262314,319.149,318.215,1.076763
14878,263322.9,319.159,318.217,1.018554
14899,263694.6,319.158,318.22,0.976372