File: i_data/46C/H2O-NH3_4.1943g.csv
H2O-NH3 9.5wt% Specific Heat - Large HF 24Oct22,,,,
Creation Date : 10/27/2022 11:02:41 AM,,,,
User : admin,,,,
,,,,
HeatFlow :,,,,
 Initial Mass : 4194.3 mg,,,,
 Molar Mass : 17 g/mol,,,,
,,,,
Index,Time(s),Furnace Temperature(K),Sample Temperature(K),HeatFlow(mW)
1,0,318.903,318.993,-1768.16
59,1026.6,317.736,318.67,-56.6926
117,2053.2,315.041,317.945,9.837388
175,3079.8,307.289,315.493,41.4174
233,4106.4,298.488,310.826,80.38743
291,5133,290.208,304.806,105.32
349,6159.6,282.515,298.166,116.864
407,7186.2,275.334,291.359,119.277
465,8212.8,268.569,284.56,119.493
523,9239.4,262.217,277.904,117.061
581,10266,256.302,271.504,112.29
639,11292.6,250.673,265.388,107.31
697,12319.2,245.289,259.539,102.63
755,13345.8,240.108,253.937,97.8404
813,14372.4,235.13,248.569,844.465
871,15399,230.383,243.473,241.154
929,16425.6,225.817,238.51,114.379
987,17452.2,221.416,233.738,87.8542
1045,18478.8,217.177,229.149,74.2039
1103,19505.4,213.109,224.734,64.0116
1161,20532,209.198,220.487,56.9896
1219,21558.6,205.428,216.4,50.9965
1277,22585.2,201.806,212.464,46.864
1335,23611.8,198.323,208.672,42.5151
1393,24638.4,194.973,205.022,39.1038
1451,25665,191.749,201.507,36.1954
1509,26691.6,188.638,198.118,33.33618
1567,27718.2,185.636,194.85,31.3655
1625,28744.8,182.727,191.694,28.96031
1683,29771.4,179.904,188.641,27.376
1741,30798,177.171,185.687,25.6349
1799,31824.6,174.511,182.824,24.52426
1857,32851.2,171.915,180.044,23.265
1915,33877.8,169.404,177.341,22.9139
1973,34904.4,166.952,174.718,21.3724
2031,35931,164.616,172.17,20.3461
2089,36957.6,162.326,169.704,19.7457
2147,37984.2,160.123,167.307,18.6551
2205,39010.8,158.02,164.992,17.8122
2263,40037.4,155.971,162.755,16.92725
2321,41064,153.947,160.581,16.4907
2379,42090.6,152.042,158.47,15.6124
2437,43117.2,150.21,156.439,14.8832
2495,44143.8,148.446,154.476,14.0891
2553,45170.4,146.772,152.589,13.5564
2611,46197,145.15,150.773,12.5574
2669,47223.6,143.605,149.028,11.9594
2727,48250.2,142.043,147.34,11.487
2785,49276.8,140.486,145.693,10.9948
2843,50303.4,138.912,144.07,10.3325
2901,51330,137.269,142.453,10.5031
2959,52356.6,135.618,140.827,10.505
3017,53383.2,134.037,139.206,10.227
3075,54409.8,132.522,137.608,9.823095
3133,55436.4,131.08,136.046,9.618274
3191,56463,129.674,134.524,9.236217
3249,57489.6,128.349,133.047,8.984276
3307,58516.2,127.1,131.624,8.450298
3365,59542.8,125.826,130.248,7.986869
3423,60569.4,124.558,128.9,7.802825
3481,61596,123.354,127.583,7.529879
3539,62622.6,122.226,126.31,7.066231
3597,63649.2,121.148,125.085,6.721634
3655,64675.8,120.108,123.906,6.389909
3713,65702.4,119.101,122.769,6.131744
3771,66729,118.113,121.671,5.794014
3829,67755.6,117.175,120.61,5.530836
3887,68782.2,116.336,119.597,5.195038
3945,69808.8,115.496,118.634,4.764648
4003,70835.4,114.6,117.695,4.620134
4061,71862,113.641,116.758,4.497932
4119,72888.6,112.693,115.816,4.417436
4177,73915.2,111.775,114.873,4.344162
4235,74941.8,110.856,113.937,4.173096
4293,75968.4,109.839,112.994,4.186686
4351,76995,108.763,112.013,4.317641
4409,78021.6,107.699,111.01,4.366703
4467,79048.2,106.89,110.02,4.074461
4525,80074.8,106.198,109.104,3.800425
4583,81101.4,105.391,108.232,3.561259
4641,82128,104.647,107.388,3.390012
4699,83154.6,103.925,106.575,3.173109
4757,84181.2,103.142,105.762,3.236234
4815,85207.8,102.474,104.975,3.028396
4873,86234.4,101.947,104.246,2.751726
4931,87261,101.527,103.592,2.401461
4989,88287.6,101.244,103.028,1.950524
5047,89314.2,100.939,102.534,1.622515
5105,90340.8,100.618,102.093,1.427918
5163,91367.4,100.225,101.674,1.340234
5221,92394,99.9797,101.28,1.187093
5279,93420.6,99.8594,100.95,0.897523
5337,94447.2,99.7239,100.677,0.630835
5395,95473.8,99.721,100.458,0.348683
5453,96500.4,99.6128,100.289,0.17291
5511,97527,99.4411,100.124,0.156002
5569,98553.6,99.2029,99.9497,0.238387
5627,99580.2,98.9442,99.75318,0.314667
5685,100606.8,100.805,99.75878,-1.23905
5743,101633.4,102.51,100.292,-3.301315
5801,102660,104.229,101.148,-4.712915
5859,103686.6,105.947,102.239,-5.74382
5917,104713.2,107.671,103.504,-6.523417
5975,105739.8,109.376,104.893,-7.099159
6033,106766.4,111.086,106.369,-7.539894
6091,107793,112.799,107.902,-7.892957
6149,108819.6,114.508,109.481,-8.18248
6207,109846.2,116.216,111.088,-8.409712
6265,110872.8,117.931,112.719,-8.637148
6323,111899.4,119.642,114.364,-8.871685
6381,112926,121.353,116.024,-9.151577
6439,113952.6,123.061,117.693,-9.572799
6497,114979.2,124.775,119.365,-10.3389
6555,116005.8,126.485,121.044,-11.4411
6613,117032.4,128.195,122.726,-11.3443
6671,118059,129.906,124.411,-11.0134
6729,119085.6,131.618,126.096,-11.0504
6787,120112.2,133.329,127.784,-11.1318
6845,121138.8,135.041,129.473,-11.2359
6903,122165.4,136.75,131.166,-11.3175
6961,123192,138.462,132.856,-11.3809
7019,124218.6,140.167,134.548,-11.461
7077,125245.2,141.884,136.237,-11.5127
7135,126271.8,143.593,137.9271,-11.5861
7193,127298.4,145.315,139.626,-11.7026
7251,128325,147.013,141.325,-11.7439
7309,129351.6,148.727,143.029,-11.7846
7367,130378.2,150.44,144.73,-11.49
7425,131404.8,152.148,146.432,-10.2551
7483,132431.4,153.861,148.139,-6.124856
7541,133458,155.571,149.85,6.768648
7599,134484.6,157.289,151.567,34.6324
7657,135511.2,158.998,153.285,24.0382
7715,136537.8,160.71,154.996,-5.183391
7773,137564.4,162.421,156.708,-9.895772
7831,138591,164.123,158.418,-10.4308
7889,139617.6,165.842,160.128,-10.5891
7947,140644.2,167.548,161.843,-10.7015
8005,141670.8,169.262,163.555,-10.7382
8063,142697.4,170.973,165.27,-10.8618
8121,143724,172.683,166.985,-11.0579
8179,144750.6,174.393,168.699,-11.4722
8237,145777.2,176.104,170.412,-12.50395
8295,146803.8,177.815,172.124,-10.85401
8353,147830.4,179.526,173.836,-11.3983
8411,148857,181.237,175.548,-14.2201
8469,149883.6,182.95,177.248,-149.062
8527,150910.2,184.652,178.954,-27.0293
8585,151936.8,186.371,180.672,-14.6798
8643,152963.4,188.077,182.387,-14.6999
8701,153990,189.79,184.094,-14.7688
8759,155016.6,191.501,185.806,-14.842
8817,156043.2,193.209,187.518,-15.0486
8875,157069.8,194.917,189.224,-15.1285
8933,158096.4,196.648,190.9177,-15.3147
8991,159123,198.349,192.609,-15.3956
9049,160149.6,200.061,194.299,-15.5948
9107,161176.2,201.767,195.981,-15.65619
9165,162202.8,203.478,197.674,-16.06707
9223,163229.4,205.166,199.374,-16.3812
9281,164256,206.918,201.069,-16.6122
9339,165282.6,208.612,202.78,-16.877
9397,166309.2,210.317,204.486,-17.0565
9455,167335.8,212.039,206.188,-17.3939
9513,168362.4,213.724,207.895,-17.5527
9571,169389,215.47,209.595,-17.9048
9629,170415.6,217.168,211.304,-18.3566
9687,171442.2,218.885,213.014,-18.8542
9745,172468.8,220.602,214.727,-19.2993
9803,173495.4,222.311,216.455,-19.8615
9861,174522,224.032,218.196,-20.3564
9919,175548.6,225.736,219.939,-20.8656
9977,176575.2,227.44,221.684,-21.3462
10035,177601.8,229.155,223.43,-22.1096
10093,178628.4,230.866,225.175,-22.6771
10151,179655,232.578,226.924,-23.48828
10209,180681.6,234.285,228.672,-24.3365
10267,181708.2,236.001,230.421,-25.0786
10325,182734.8,237.706,232.169,-26.3783
10383,183761.4,239.422,233.914,-27.4176
10441,184788,241.134,235.662,-28.5488
10499,185814.6,242.841,237.409,-29.9971
10557,186841.2,244.552,239.151,-31.87811
10615,187867.8,246.263,240.893,-33.7136
10673,188894.4,247.9723,242.633,-36.0127
10731,189921,249.678,244.368,-38.3715
10789,190947.6,251.39,246.097,-41.2926
10847,191974.2,253.105,247.822,-44.49577
10905,193000.8,254.819,249.553,-49.0889
10963,194027.4,256.526,251.284,-54.4051
11021,195054,258.236,253.006,-60.4729
11079,196080.6,259.942,254.725,-67.9875
11137,197107.2,261.6607,256.44,-77.5644
11195,198133.8,263.368,258.157,-89.6216
11253,199160.4,265.083,259.877,-103.887
11311,200187,266.793,261.598,-117.933
11369,201213.6,268.5026,263.318,-121.489
11427,202240.2,270.212,265.043,-75.9987
11485,203266.8,271.923,266.773,-31.6616
11543,204293.4,273.634,268.503,-29.5238
11601,205320,275.345,270.227,-29.3783
11659,206346.6,277.057,271.951,-29.3993
11717,207373.2,278.767,273.672,-29.3684
11775,208399.8,280.47,275.388,-29.3292
11833,209426.4,282.187,277.101,-29.2899
11891,210453,283.899,278.812,-29.2718
11949,211479.6,285.613,280.527,-29.3347
12007,212506.2,287.322,282.243,-29.3927
12065,213532.8,289.028,283.957,-29.3469
12123,214559.4,290.739,285.667,-29.2812
12181,215586,292.453,287.376,-29.2204
12239,216612.6,294.16,289.085,-29.2338
12297,217639.2,295.873,290.79,-29.1476
12355,218665.8,297.586,292.488,-29.0045
12413,219692.4,299.299,294.183,-28.9406
12471,220719,301.006,295.885,-29.0715
12529,221745.6,302.712,297.606,-29.4237
12587,222772.2,304.432,299.315,-29.2799
12645,223798.8,306.139,301.019,-29.1512
12703,224825.4,307.846,302.722,-29.1609
12761,225852,309.551,304.414,-29.0019
12819,226878.6,311.268,306.113,-29.1518
12877,227905.2,312.972,307.81,-29.1071
12935,228931.8,314.695,309.509,-29.1328
12993,229958.4,316.393,311.207,-29.144
13051,230985,318.114,312.897,-28.9834
13109,232011.6,319.177,314.546,-28.5189
13167,233038.2,319.152,315.714,-20.51
13225,234064.8,319.166,316.474,-13.2225
13283,235091.4,319.142,316.972,-8.369966
13341,236118,319.145,317.28,-4.91745
13399,237144.6,319.158,317.468,-2.71177
13457,238171.2,319.156,317.601,-1.65857
13515,239197.8,319.158,317.681,-0.744507
13573,240224.4,319.1505,317.734,-0.192238
13631,241251,319.15,317.767,0.113416
13689,242277.6,319.15,317.784,0.431718
13747,243304.2,319.144,317.803,0.395089
13805,244330.8,319.151,317.816,0.469005
13863,245357.4,319.1556,317.817,0.703592
13921,246384,319.145,317.82,0.69397
13979,247410.6,319.139,317.817,0.827805
14037,248437.2,319.136,317.815,0.768906
14095,249463.8,319.148,317.802,0.931775
14153,250490.4,319.146,317.8,0.797267
14211,251517,319.157,317.801,0.752712
14269,252543.6,319.157,317.805,0.714737
14327,253570.2,319.159,317.808,0.76064
14385,254596.8,319.154,317.812,0.679291
14443,255623.4,319.155,317.819,0.626464
14501,256650,319.151,317.841,0.396428
14559,257676.6,319.16,317.859,0.485529
14617,258703.2,319.15,317.867,0.652094
14675,259729.8,319.152,317.871,0.717571
14733,260756.4,319.156,317.882,0.638417
14791,261783,319.157,317.901,0.495134
14849,262809.6,319.151,317.92,0.48922
14907,263836.2,319.162,317.942,0.453437
14956,264703.5,319.159,317.964,0.400274