File: i_data/46C/H2O-NH3_3.7107g.csv
H2O-NH3 20wt% Specific Heat - Large HF,,,,
Creation Date : 9/29/2022 1:10:54 PM,,,,
User : admin,,,,
,,,,
HeatFlow :,,,,
 Initial Mass : 3710.7 mg,,,,
 Molar Mass : 17 g/mol,,,,
,,,,
Index,Time(s),Furnace Temperature(K),Sample Temperature(K),HeatFlow(mW)
1,0,298.833,298.867,1798.27
59,1026.6,298.799,298.873,2.865347
117,2053.2,297.603,298.71,0.005146
175,3079.8,292.107,297.456,16.2917
233,4106.4,281.57,293.775,53.4002
291,5133,266.707,286.705,105.502
349,6159.6,253.713,277.291,141.2
407,7186.2,242.45,267.154,151.002
465,8212.8,232.766,257.095,147.522
523,9239.4,224.704,247.611,136.073
581,10266,218.104,239.005,120.323
639,11292.6,212.651,231.368,104.473
697,12319.2,208.298,224.725,87.8911
755,13345.8,204.555,219.007,237.428
813,14372.4,201.029,214,88.193
871,15399,197.631,209.501,67.6923
929,16425.6,194.413,205.4047,56.9792
987,17452.2,191.169,201.601,49.9557
1045,18478.8,188.116,198.017,44.1342
1103,19505.4,185.2,194.638,39.8163
1161,20532,182.437,191.44,35.5341
1219,21558.6,179.768,188.403,32.7451
1277,22585.2,177.173,185.503,29.9825
1335,23611.8,174.66,182.717,28.3831
1393,24638.4,172.219,180.036,26.12931
1451,25665,169.852,177.449,24.9948
1509,26691.6,167.575,174.949,23.6365
1567,27718.2,165.364,172.534,22.1456
1625,28744.8,163.224,170.198,21.1338
1683,29771.4,161.134,167.9336,20.1184
1741,30798,159.119,165.737,19.0546
1799,31824.6,157.166,163.609,18.491
1857,32851.2,155.187,161.533,17.74478
1915,33877.8,153.368,159.515,16.5537
1973,34904.4,151.607,157.569,15.975
2031,35931,149.877,155.685,15.4006
2089,36957.6,148.1827,153.853,14.6325
2147,37984.2,146.514,152.071,14.0987
2205,39010.8,144.859,150.324,13.6724
2263,40037.4,143.286,148.619,13.2466
2321,41064,141.759,146.961,12.68821
2379,42090.6,140.28,145.35,11.9479
2437,43117.2,138.86,143.785,11.61998
2495,44143.8,137.508,142.275,11.102
2553,45170.4,136.181,140.814,10.6938
2611,46197,134.888,139.397,10.24626
2669,47223.6,133.635,138.022,9.875082
2727,48250.2,132.414,136.685,9.574803
2785,49276.8,131.2414,135.388,9.040528
2843,50303.4,130.123,134.136,8.72113
2901,51330,129.039,132.927,8.364019
2959,52356.6,127.968,131.755,7.966147
3017,53383.2,126.913,130.612,7.746295
3075,54409.8,125.907,129.502,7.542448
3133,55436.4,124.942,128.427,7.215999
3191,56463,124.025,127.389,6.925981
3249,57489.6,123.126,126.389,6.441213
3307,58516.2,122.237,125.418,6.339181
3365,59542.8,121.376,124.472,6.137035
3423,60569.4,120.543,123.554,5.845675
3481,61596,119.754,122.666,5.553496
3539,62622.6,118.982,121.807,5.337528
3597,63649.2,118.286,120.982,5.136049
3655,64675.8,117.645,120.202,4.706783
3713,65702.4,116.979,119.458,4.469112
3771,66729,116.317,118.733,4.304718
3829,67755.6,115.705,118.034,3.993489
3887,68782.2,115.082,117.356,3.780735
3945,69808.8,114.487,116.698,3.530646
4003,70835.4,113.908,116.058,3.341086
4061,71862,113.352,115.439,3.123448
4119,72888.6,112.816,114.84,2.947148
4177,73915.2,112.297,114.26,2.759673
4235,74941.8,111.801,113.7,2.615193
4293,75968.4,111.332,113.162,2.459166
4351,76995,110.906,112.648,2.307982
4409,78021.6,110.528,112.165,2.100423
4467,79048.2,110.154,111.711,1.893195
4525,80074.8,109.821,111.285,1.708311
4583,81101.4,109.506,110.888,1.537112
4641,82128,109.173,110.508,1.422699
4699,83154.6,108.944,110.156,1.250542
4757,84181.2,108.759,109.846,1.04352
4815,85207.8,108.6,109.572,0.823777
4873,86234.4,108.407,109.328,0.691792
4931,87261,108.15,109.088,0.67487
4989,88287.6,107.868,108.837,0.712848
5047,89314.2,107.598,108.577,0.741275
5105,90340.8,107.377,108.32,0.710896
5163,91367.4,107.17,108.08,0.632987
5221,92394,106.954,107.845,0.583535
5279,93420.6,106.813,107.626,0.501865
5337,94447.2,106.695,107.432,0.368156
5395,95473.8,106.625,107.264,0.230512
5453,96500.4,106.574,107.126,0.101075
5511,97527,106.524,107.013,-0.014634
5569,98553.6,106.46,106.918,-0.085319
5627,99580.2,106.412,106.831,-0.139851
5685,100606.8,106.384,106.757,-0.214199
5743,101633.4,106.367,106.697,-0.278395
5801,102660,106.35,106.649,-0.321564
5859,103686.6,106.328,106.608,-0.365385
5917,104713.2,107.48,106.636,-0.933206
5975,105739.8,109.355,107.157,-3.340083
6033,106766.4,111.07,108.004,-4.843252
6091,107793,112.786,109.087,-5.966146
6149,108819.6,114.503,110.338,-6.84905
6207,109846.2,116.212,111.712,-7.555861
6265,110872.8,117.925,113.174,-8.163007
6323,111899.4,119.64,114.697,-8.745265
6381,112926,121.35,116.267,-9.419617
6439,113952.6,123.062,117.87,-10.4238
6497,114979.2,124.773,119.497,-12.1601
6555,116005.8,126.485,121.145,-14.5014
6613,117032.4,128.197,122.804,-13.8822
6671,118059,129.908,124.475,-13.0058
6729,119085.6,131.618,126.152,-13.0123
6787,120112.2,133.328,127.834,-13.0718
6845,121138.8,135.04,129.519,-13.1598
6903,122165.4,136.751,131.207,-13.2286
6961,123192,138.463,132.898,-13.3119
7019,124218.6,140.173,134.589,-13.3833
7077,125245.2,141.885,136.283,-13.45887
7135,126271.8,143.596,137.978,-13.5438
7193,127298.4,145.308,139.675,-13.6117
7251,128325,147.019,141.374,-13.6737
7309,129351.6,148.73,143.075,-13.6554
7367,130378.2,150.441,144.778,-13.2696
7425,131404.8,152.152,146.484,-11.197
7483,132431.4,153.861,148.191,-1.944741
7541,133458,155.575,149.905,35.8004
7599,134484.6,157.286,151.633,119.847
7657,135511.2,158.997,153.357,32.8128
7715,136537.8,160.706,155.064,-7.284316
7773,137564.4,162.417,156.769,-9.949892
7831,138591,164.128,158.478,-10.2558
7889,139617.6,165.838,160.187,-10.3665
7947,140644.2,167.551,161.898,-10.5238
8005,141670.8,169.263,163.61,-10.6594
8063,142697.4,170.973,165.324,-10.89767
8121,143724,172.684,167.04,-11.207
8179,144750.6,174.395,168.757,-11.3146
8237,145777.2,176.108,170.474,-11.1754
8295,146803.8,177.817,172.193,-11.12639
8353,147830.4,179.528,173.911,-11.7604
8411,148857,181.234,175.629,-18.1006
8469,149883.6,182.943,177.327,-164.31
8527,150910.2,184.657,179.004,-207.282
8585,151936.8,186.373,180.721,-22.9516
8643,152963.4,188.091,182.448,-18.2995
8701,153990,189.789,184.177,-18.5335
8759,155016.6,191.502,185.898,-18.7392
8817,156043.2,193.215,187.617,-18.8891
8875,157069.8,194.926,189.336,-19.2099
8933,158096.4,196.638,191.055,-19.5049
8991,159123,198.35,192.774,-19.7707
9049,160149.6,200.06,194.494,-20.0543
9107,161176.2,201.772,196.213,-20.48
9165,162202.8,203.483,197.934,-20.5099
9223,163229.4,205.194,199.654,-21.2378
9281,164256,206.906,201.375,-21.5482
9339,165282.6,208.617,203.098,-21.9262
9397,166309.2,210.335,204.826,-22.4648
9455,167335.8,212.041,206.557,-23.1321
9513,168362.4,213.751,208.289,-23.8048
9571,169389,215.461,210.017,-24.0663
9629,170415.6,217.173,211.743,-24.9275
9687,171442.2,218.882,213.47,-25.4498
9745,172468.8,220.587,215.194,-26.1444
9803,173495.4,222.303,216.913,-27.0507
9861,174522,224.018,218.631,-27.7141
9919,175548.6,225.724,220.353,-28.9281
9977,176575.2,227.436,222.071,-29.9602
10035,177601.8,229.149,223.791,-30.9042
10093,178628.4,230.861,225.513,-32.407
10151,179655,232.571,227.235,-33.9146
10209,180681.6,234.284,228.957,-35.2272
10267,181708.2,235.992,230.679,-37.02384
10325,182734.8,237.702,232.4,-38.429
10383,183761.4,239.414,234.121,-39.47939
10441,184788,241.124,235.841,-37.6401
10499,185814.6,242.836,237.5647,-25.6101
10557,186841.2,244.548,239.288,-23.2547
10615,187867.8,246.258,241.011,-23.165
10673,188894.4,247.969,242.732,-23.3004
10731,189921,249.68,244.453,-23.1582
10789,190947.6,251.39,246.174,-23.3301
10847,191974.2,253.101,247.894,-23.5354
10905,193000.8,254.813,249.614,-23.7799
10963,194027.4,256.524,251.333,-23.9004
11021,195054,258.235,253.054,-23.9619
11079,196080.6,259.945,254.774,-24.0505
11137,197107.2,261.658,256.493,-24.2895
11195,198133.8,263.367,258.212,-24.3816
11253,199160.4,265.081,259.93,-24.4986
11311,200187,266.79,261.65,-24.6408
11369,201213.6,268.501,263.369,-24.78705
11427,202240.2,270.21,265.088,-24.952
11485,203266.8,271.925,266.802,-24.9625
11543,204293.4,273.636,268.522,-25.1529
11601,205320,275.348,270.242,-25.3118
11659,206346.6,277.057,271.964,-25.4852
11717,207373.2,278.768,273.685,-25.6016
11775,208399.8,280.476,275.403,-25.6585
11833,209426.4,282.185,277.12,-25.768
11891,210453,283.9,278.832,-25.804
11949,211479.6,285.611,280.548,-25.9426
12007,212506.2,287.324,282.266,-26.0601
12065,213532.8,289.034,283.985,-26.0892
12123,214559.4,290.743,285.703,-26.1276
12181,215586,292.452,287.418,-26.15711
12239,216612.6,294.163,289.13,-26.0738
12297,217639.2,295.876,290.842,-26.0234
12355,218665.8,297.589,292.548,-25.8918
12413,219692.4,299.301,294.25,-25.8572
12471,220719,301.011,295.956,-25.9096
12529,221745.6,302.72,297.683,-26.22797
12587,222772.2,304.435,299.407,-26.2692
12645,223798.8,306.144,301.13,-26.2958
12703,224825.4,307.855,302.849,-26.3113
12761,225852,309.562,304.566,-26.3154
12819,226878.6,311.273,306.286,-26.3898
12877,227905.2,312.987,308.002,-26.3886
12935,228931.8,314.695,309.718,-26.4297
12993,229958.4,316.409,311.434,-26.44055
13051,230985,318.115,313.148,-26.4564
13109,232011.6,319.19,314.814,-26.0117
13167,233038.2,319.159,315.996,-18.6732
13225,234064.8,319.155,316.756,-11.8783
13283,235091.4,319.151,317.241,-7.311212
13341,236118,319.145,317.548,-4.330411
13399,237144.6,319.155,317.741,-2.451146
13457,238171.2,319.146,317.867,-1.324945
13515,239197.8,319.153,317.946,-0.564643
13573,240224.4,319.154,318.005,-0.172626
13631,241251,319.142,318.043,0.153047
13689,242277.6,319.14,318.056,0.582653
13747,243304.2,319.149,318.056,0.848922
13805,244330.8,319.144,318.047,0.999949
13863,245357.4,319.147,318.034,1.104241
13921,246384,319.146,318.019,1.145594
13979,247410.6,319.162,318.01,1.106115
14037,248437.2,319.151,318.006,1.054315
14095,249463.8,319.148,318.005,1.00808
14153,250490.4,319.146,318.002,1.018712
14211,251517,319.157,318.006,0.957456
14269,252543.6,319.149,318.007,0.992553
14327,253570.2,319.147,318.015,0.91442
14385,254596.8,319.16,318.023,0.894671
14443,255623.4,319.154,318.038,0.809279
14501,256650,319.161,318.062,0.700092
14559,257676.6,319.164,318.09,0.6611
14617,258703.2,319.16,318.125,0.560352
14675,259729.8,319.154,318.153,0.618382
14733,260756.4,319.15,318.172,0.744411
14791,261783,319.155,318.186,0.846143
14849,262809.6,319.154,318.2,0.851027
14907,263836.2,319.153,318.212,0.910915
14956,264703.5,319.151,318.219,0.96895