File: i_data/46C/H2O-NH3_4.8505g.csv
H2O-NH3 2wt% Specific Heat - Large HF 03Nov22,,,,
Creation Date : 11/7/2022 9:33:05 AM,,,,
User : admin,,,,
,,,,
HeatFlow :,,,,
 Initial Mass : 4850.5 mg,,,,
 Molar Mass : 17 g/mol,,,,
,,,,
Index,Time(s),Furnace Temperature(K),Sample Temperature(K),HeatFlow(mW)
1,0,318.661,317.873,-1769.58
59,1026.6,316.769,317.68,-72.5368
117,2053.2,314.5,316.986,3.96102
175,3079.8,307.854,314.948,33.628
233,4106.4,299.114,310.709,78.6274
291,5133,290.751,304.94,111.636
349,6159.6,283.001,298.431,128.624
407,7186.2,275.901,291.702,133.768
465,8212.8,269.401,285.03,133.966
523,9239.4,263.26,278.539,130.784
581,10266,257.359,272.278,127.172
639,11292.6,251.703,266.246,123.286
697,12319.2,246.288,260.442,134.601
755,13345.8,241.141,255.013,649.936
813,14372.4,236.201,249.642,125.222
871,15399,231.424,244.464,80.469
929,16425.6,226.821,239.49,66.9553
987,17452.2,222.399,234.707,58.276
1045,18478.8,218.151,230.108,52.398
1103,19505.4,213.988,225.671,47.3686
1161,20532,209.879,221.362,43.5968
1219,21558.6,206.039,217.188,40.35491
1277,22585.2,202.394,213.185,37.2913
1335,23611.8,198.885,209.342,34.7818
1393,24638.4,195.51,205.649,32.3216
1451,25665,192.244,202.094,30.5038
1509,26691.6,189.077,198.663,28.4473
1567,27718.2,186.017,195.349,26.47497
1625,28744.8,183.049,192.145,24.8694
1683,29771.4,180.195,189.045,23.6411
1741,30798,177.472,186.054,23.1282
1799,31824.6,174.856,183.176,21.134
1857,32851.2,172.311,180.398,20.4335
1915,33877.8,169.844,177.712,19.6438
1973,34904.4,167.444,175.111,18.28943
2031,35931,165.121,172.593,17.82225
2089,36957.6,162.885,170.154,17.2102
2147,37984.2,160.708,167.791,16.3819
2205,39010.8,158.592,165.499,15.5875
2263,40037.4,156.547,163.278,15.355
2321,41064,154.516,161.115,14.6851
2379,42090.6,152.559,159.005,13.7393
2437,43117.2,150.636,156.953,13.7136
2495,44143.8,148.733,154.945,13.2422
2553,45170.4,146.9,152.983,12.9444
2611,46197,145.025,151.056,12.7502
2669,47223.6,143.194,149.154,12.3845
2727,48250.2,141.424,147.283,11.82433
2785,49276.8,139.643,145.445,11.8881
2843,50303.4,137.889,143.628,11.0977
2901,51330,136.241,141.846,10.7942
2959,52356.6,134.711,140.122,10.4178
3017,53383.2,133.259,138.465,10.017
3075,54409.8,131.829,136.873,9.264748
3133,55436.4,130.422,135.328,8.959841
3191,56463,129.064,133.831,8.761314
3249,57489.6,127.769,132.383,8.099297
3307,58516.2,126.515,130.984,7.821449
3365,59542.8,125.312,129.633,7.454112
3423,60569.4,124.139,128.327,7.063207
3481,61596,123.021,127.067,6.806074
3539,62622.6,121.936,125.85,6.326112
3597,63649.2,120.9,124.677,6.047272
3655,64675.8,119.889,123.546,5.775606
3713,65702.4,118.903,122.451,5.491665
3771,66729,117.95,121.392,5.284442
3829,67755.6,117.022,120.363,5.015123
3887,68782.2,116.131,119.368,4.706612
3945,69808.8,115.281,118.408,4.527821
4003,70835.4,114.466,117.482,4.340244
4061,71862,113.669,116.589,4.144193
4119,72888.6,112.942,115.731,3.873563
4177,73915.2,112.226,114.912,3.670596
4235,74941.8,111.476,114.116,3.567831
4293,75968.4,110.721,113.331,3.483476
4351,76995,110.02,112.561,3.381077
4409,78021.6,109.311,111.809,3.256345
4467,79048.2,108.557,111.061,3.224668
4525,80074.8,107.735,110.301,3.296651
4583,81101.4,106.894,109.519,3.370089
4641,82128,106.228,108.738,3.286798
4699,83154.6,105.438,107.994,3.12656
4757,84181.2,103.345,107.06,4.359859
4815,85207.8,99.8367,105.59,7.042079
4873,86234.4,96.6834,103.596,8.99842
4931,87261,94.35932,101.368,9.286924
4989,88287.6,92.6596,99.1951,9.033436
5047,89314.2,91.4127,97.2139,8.004096
5105,90340.8,90.54093,95.4894,7.019462
5163,91367.4,89.9196,94.0435,5.634251
5221,92394,89.4624,92.8494,4.577634
5279,93420.6,89.0505,91.8724,3.582679
5337,94447.2,90.4819,91.207,1.615694
5395,95473.8,92.2452,91.2629,-1.413572
5453,96500.4,93.9668,91.7752,-3.328097
5511,97527,95.6734,92.6257,-4.788036
5569,98553.6,97.394,93.7152,-5.815928
5627,99580.2,99.1142,94.9796,-6.591103
5685,100606.8,100.822,96.3682,-7.183173
5743,101633.4,102.5362,97.847,-7.61384
5801,102660,104.249,99.3891,-7.990779
5859,103686.6,105.953,100.976,-8.244543
5917,104713.2,107.6742,102.589,-8.44103
5975,105739.8,109.375,104.225,-8.627211
6033,106766.4,111.087,105.873,-8.767347
6091,107793,112.797,107.53,-8.902673
6149,108819.6,114.507,109.196,-9.017192
6207,109846.2,116.217,110.864,-9.111755
6265,110872.8,117.929,112.539,-9.220174
6323,111899.4,119.642,114.215,-9.358076
6381,112926,121.352,115.896,-9.49871
6439,113952.6,123.062,117.578,-9.678351
6497,114979.2,124.776,119.262,-9.995698
6555,116005.8,126.487,120.95,-10.4081
6613,117032.4,128.198,122.637,-10.4802
6671,118059,129.907,124.328,-10.454
6729,119085.6,131.618,126.017,-10.5341
6787,120112.2,133.328,127.7078,-10.60662
6845,121138.8,135.04,129.399,-10.6852
6903,122165.4,136.749,131.09,-10.7478
6961,123192,138.461,132.781,-10.82281
7019,124218.6,140.172,134.471,-10.89314
7077,125245.2,141.883,136.163,-10.9651
7135,126271.8,143.595,137.855,-11.0449
7193,127298.4,145.305,139.548,-11.1357
7251,128325,147.016,141.242,-11.2243
7309,129351.6,148.725,142.937,-11.2596
7367,130378.2,150.428,144.628,-11.2462
7425,131404.8,152.161,146.316,-11.0675
7483,132431.4,153.862,148.005,-10.5235
7541,133458,155.569,149.692,-9.43344
7599,134484.6,157.25,151.385,-7.64619
7657,135511.2,158.996,153.0633,-4.929056
7715,136537.8,160.683,154.761,-2.234253
7773,137564.4,162.438,156.452,-3.163772
7831,138591,164.134,158.161,-9.048291
7889,139617.6,165.854,159.874,-11.2419
7947,140644.2,167.543,161.595,-11.6762
8005,141670.8,169.26,163.306,-11.69119
8063,142697.4,170.986,165.013,-11.7732
8121,143724,172.655,166.723,-11.82834
8179,144750.6,174.391,168.426,-12.0013
8237,145777.2,176.077,170.124,-13.0118
8295,146803.8,177.799,171.816,-19.3409
8353,147830.4,179.5287,173.519,-8.968589
8411,148857,181.233,175.225,-12.4809
8469,149883.6,182.954,176.922,-42.3445
8527,150910.2,184.664,178.631,-16.2147
8585,151936.8,186.368,180.345,-13.502
8643,152963.4,188.082,182.054,-13.52708
8701,153990,189.809,183.77,-13.65207
8759,155016.6,191.51,185.473,-13.6258
8817,156043.2,193.222,187.174,-13.7444
8875,157069.8,194.934,188.875,-13.8936
8933,158096.4,196.634,190.586,-13.9902
8991,159123,198.342,192.291,-14.0819
9049,160149.6,200.059,193.995,-14.2781
9107,161176.2,201.765,195.704,-14.384
9165,162202.8,203.482,197.413,-14.3855
9223,163229.4,205.193,199.125,-14.6905
9281,164256,206.907,200.841,-14.7376
9339,165282.6,208.608,202.565,-14.8701
9397,166309.2,210.339,204.275,-14.912
9455,167335.8,212.052,205.995,-15.2389
9513,168362.4,213.754,207.726,-15.5382
9571,169389,215.465,209.461,-15.6666
9629,170415.6,217.17,211.203,-15.8051
9687,171442.2,218.875,212.949,-16.0343
9745,172468.8,220.596,214.696,-16.2492
9803,173495.4,222.32,216.45,-16.5933
9861,174522,224.037,218.207,-16.5863
9919,175548.6,225.7447,219.965,-16.92826
9977,176575.2,227.455,221.731,-17.2407
10035,177601.8,229.154,223.501,-17.535
10093,178628.4,230.861,225.257,-17.7202
10151,179655,232.575,227.007,-17.7784
10209,180681.6,234.29,228.754,-17.9301
10267,181708.2,235.994,230.501,-18.3916
10325,182734.8,237.706,232.241,-18.731
10383,183761.4,239.416,233.977,-18.8173
10441,184788,241.129,235.713,-19.3821
10499,185814.6,242.841,237.448,-20.1597
10557,186841.2,244.552,239.187,-20.655
10615,187867.8,246.261,240.923,-21.2931
10673,188894.4,247.966,242.656,-21.9215
10731,189921,249.679,244.383,-22.6536
10789,190947.6,251.391,246.107,-23.6356
10847,191974.2,253.103,247.829,-24.4488
10905,193000.8,254.814,249.551,-26.3617
10963,194027.4,256.523,251.271,-28.0281
11021,195054,258.235,252.992,-29.9815
11079,196080.6,259.946,254.712,-32.7753
11137,197107.2,261.661,256.433,-36.1066
11195,198133.8,263.37,258.157,-40.6769
11253,199160.4,265.08,259.878,-46.6415
11311,200187,266.789,261.599,-54.67017
11369,201213.6,268.497,263.313,-66.2402
11427,202240.2,270.207,265.021,-82.7345
11485,203266.8,271.925,266.721,-107.458
11543,204293.4,273.628,268.421,-144.2
11601,205320,275.334,270.109,-200.567
11659,206346.6,277.043,271.788,-280.591
11717,207373.2,278.748,273.449,-344.179
11775,208399.8,280.476,275.123,-143.476
11833,209426.4,282.18,276.827,-38.6124
11891,210453,283.906,278.525,-34.28798
11949,211479.6,285.609,280.233,-34.2523
12007,212506.2,287.31,281.94,-34.3253
12065,213532.8,289.023,283.64,-34.1944
12123,214559.4,290.722,285.343,-34.3165
12181,215586,292.441,287.031,-34.1005
12239,216612.6,294.155,288.723,-34.1978
12297,217639.2,295.87,290.42,-34.3106
12355,218665.8,297.598,292.128,-34.4828
12413,219692.4,299.294,293.837,-34.56766
12471,220719,301.025,295.542,-34.4826
12529,221745.6,302.713,297.285,-35.2613
12587,222772.2,304.435,299.014,-35.1406
12645,223798.8,306.136,300.725,-34.8528
12703,224825.4,307.866,302.429,-34.771
12761,225852,309.559,304.146,-35.0771
12819,226878.6,311.281,305.855,-35.0646
12877,227905.2,312.992,307.577,-35.36058
12935,228931.8,314.703,309.304,-35.5742
12993,229958.4,316.404,311.038,-35.7409
13051,230985,318.117,312.75,-35.5105
13109,232011.6,319.182,314.412,-34.9524
13167,233038.2,319.153,315.588,-25.9185
13225,234064.8,319.161,316.347,-17.3851
13283,235091.4,319.157,316.853,-12.0131
13341,236118,319.15,317.176,-7.836338
13399,237144.6,319.145,317.372,-5.119534
13457,238171.2,319.162,317.502,-3.587807
13515,239197.8,319.16,317.608,-2.871171
13573,240224.4,319.159,317.684,-2.152331
13631,241251,319.158,317.742,-1.717302
13689,242277.6,319.162,317.794,-1.418345
13747,243304.2,319.144,317.824,-1.002136
13805,244330.8,319.142,317.829,-0.428159
13863,245357.4,319.145,317.815,-0.008776
13921,246384,319.145,317.799,0.304967
13979,247410.6,319.132,317.775,0.653657
14037,248437.2,319.16,317.756,0.725057
14095,249463.8,319.159,317.74,0.774011
14153,250490.4,319.136,317.74,0.45266
14211,251517,319.157,317.735,0.583801
14269,252543.6,319.159,317.742,0.460254
14327,253570.2,319.157,317.759,0.292655
14385,254596.8,319.153,317.775,0.312398
14443,255623.4,319.147,317.791,0.313745
14501,256650,319.153,317.802,0.412472
14559,257676.6,319.16,317.829,0.212139
14617,258703.2,319.156,317.857,0.151886
14675,259729.8,319.158,317.884,0.211624
14733,260756.4,319.154,317.914,0.174325
14791,261783,319.16,317.942,0.251947
14849,262809.6,319.159,317.976,0.216672
14907,263836.2,319.155,317.999,0.405832
14956,264703.5,319.157,318.02,0.449868