File: z_unorganized_archive/archive/0.25Kmin_wrong_wt%/data/3.52wt%_climb_proc.txt
 Index  Time(s)  Furnace Temperature(K)  Sample Temperature(K)  HeatFlow(mW)  Q_Corrected       Fc
  8501  98600.0              127.963             116.218    -20.6978   -18.2198      NaN
  8533  98971.2              129.509             117.59    -21.2948   -18.7512      NaN
  8565  99342.4              131.054             118.977    -21.9475   -19.3346      NaN
  8597  99713.6              132.604             120.381    -22.7774   -20.1045      NaN
  8629 100084.8              134.14             121.797    -23.8872   -21.1668      NaN
  8661 100456.0              135.692             123.223    -24.9859   -22.2364      NaN
  8693 100827.2              137.249             124.662    -25.2089   -22.4218      NaN
  8725 101198.4              138.787             126.111    -25.2817   -22.4703      NaN
  8757 101569.6              140.33             127.567    -25.5322   -22.6945      NaN
  8789 101940.8              141.887             129.031    -25.8469   -22.9972      NaN
  8821 102312.0              143.436             130.506    -26.1929   -23.3378      NaN
  8853 102683.2              144.972             131.985    -26.5171   -23.6452      NaN
  8885 103054.4              146.522             133.469    -26.8079   -23.9365      NaN
  8917 103425.6              148.074             134.96    -27.0947   -24.2143      NaN
  8949 103796.8              149.618             136.456    -27.3744   -24.4912      NaN
  8981 104168.0              151.17             137.958    -27.6432   -24.7636      NaN
  9013 104539.2              152.707             139.465    -27.9297   -25.0556      NaN
  9045 104910.4              154.255             140.974    -28.1944   -25.3298      NaN
  9077 105281.6              155.809             142.489    -28.4487   -25.5927      NaN
  9109 105652.8              157.353             144.007    -28.7082   -25.8552      NaN
  9141 106024.0              158.904             145.53    -28.9624   -26.1246      NaN
  9173 106395.2              160.442             147.054    -29.2013   -26.3656      NaN
  9205 106766.4              161.991             148.582    -29.3195   -26.5008      NaN
  9237 107137.6              163.542             150.112    -29.2155   -26.4165      NaN
  9269 107508.8              165.086             151.644    -28.5945   -25.7931      NaN
  9301 107880.0              166.631             153.179    -27.1527   -24.3908      NaN
  9333 108251.2              168.18             154.715    -24.4853   -21.7348      NaN
  9365 108622.4              169.724             156.253    -19.6406   -16.9186      NaN
  9397 108993.6              171.276             157.795    -11.2961    -8.602270      NaN
  9429 109364.8              172.828             159.339     -1.752338     0.911837      NaN
  9461 109736.0              174.37             160.885      0.015465     2.648654      NaN
  9493 110107.2              175.916             162.432     -7.185112    -4.568406      NaN
  9525 110478.4              177.467             163.98    -15.9544   -13.3885      NaN
  9557 110849.6              179.012             165.53    -22.5034   -19.9712      NaN
  9589 111220.8              180.552             167.081    -26.5682   -24.0723      NaN
  9621 111592.0              182.101             168.63    -28.9148   -26.4411      NaN
  9653 111963.2              183.648             170.18    -31.0379   -28.5804      NaN
  9685 112334.4              185.199             171.73    -57.5549   -55.1525      NaN
  9717 112705.6              186.744             173.279    -72.3725   -69.9888      NaN
  9749 113076.8              188.289             174.833     -1.500744     0.828461      NaN
  9781 113448.0              189.835             176.389    -14.3353   -12.0788 0.892257
  9813 113819.2              191.389             177.94   -102.975  -100.754 0.891344
  9845 114190.4              192.932             179.489    -89.3495   -87.1621 0.890415
  9877 114561.6              194.476             181.044    -47.3659   -45.2473 0.889467
  9909 114932.8              196.028             182.602    -38.319   -36.2519 0.888498
  9941 115304.0              197.574             184.159    -36.4046   -34.3817 0.887511
  9973 115675.2              199.114             185.719    -36.2699   -34.2875 0.886500
 10005 116046.4              200.662             187.279    -36.5306   -34.644 0.885467
 10037 116417.6              202.208             188.84    -36.8015   -34.821 0.884408
 10069 116788.8              203.762             190.402    -36.9829   -35.0593 0.883322
 10101 117160.0              205.301             191.967    -37.4638   -35.6588 0.882207
 10133 117531.2              206.851             193.532    -37.7581   -36.0076 0.881061
 10165 117902.4              208.395             195.098    -38.1474   -36.3479 0.879883
 10197 118273.6              209.944             196.666    -38.5187   -36.8744 0.878669
 10229 118644.8              211.487             198.235    -38.8958   -37.3319 0.877417
 10261 119016.0              213.036             199.803    -39.1285   -37.4412 0.876126
 10293 119387.2              214.592             201.373    -39.3659   -37.711 0.874792
 10325 119758.4              216.135             202.945    -39.9953   -38.3665 0.873410
 10357 120129.6              217.679             204.52    -40.4744   -38.9395 0.871976
 10389 120500.8              219.221             206.092    -40.8326   -39.6013 0.870492
 10421 120872.0              220.769             207.666    -41.2906   -39.8749 0.868949
 10453 121243.2              222.314             209.239    -41.7505   -40.2641 0.867345
 10485 121614.4              223.858             210.812    -42.2657   -40.7754 0.865674
 10517 121985.6              225.409             212.385    -42.6969   -41.3978 0.863931
 10549 122356.8              226.947             213.957    -43.1999   -41.6708 0.862111
 10581 122728.0              228.499             215.528    -43.7167   -42.5106 0.860207
 10613 123099.2              230.05             217.1    -44.1682   -42.9089 0.858208
 10645 123470.4              231.594             218.673    -44.8707   -43.6607 0.856107
 10677 123841.6              233.135             220.244    -45.4331   -44.3276 0.853896
 10709 124212.8              234.685             221.814    -46.0168   -45.0141 0.851565
 10741 124584.0              236.228             223.383    -46.6992   -45.8016 0.849101
 10773 124955.2              237.779             224.952    -47.4899   -46.5977 0.846489
 10805 125326.4              239.305             226.518    -48.3098   -47.3592 0.843716
 10837 125697.6              240.864             228.078    -48.9572   -48.1107 0.840772
 10869 126068.8              242.424             229.642    -49.8766   -48.8424 0.837619
 10901 126440.0              243.975             231.209    -50.9855   -50.1112 0.834229
 10933 126811.2              245.52             232.778    -52.0735   -51.1833 0.830577
 10965 127182.4              247.054             234.347    -53.4289   -52.6808 0.826631
 10997 127553.6              248.595             235.913    -54.7485   -54.0852 0.822364
 11029 127924.8              250.157             237.479    -56.1739   -55.2387 0.817719
 11061 128296.0              251.692             239.045    -57.8219   -57.0345 0.812639
 11093 128667.2              253.252             240.611    -59.59   -59.1239 0.807063
 11125 129038.4              254.801             242.179    -61.6258   -61.2293 0.800898
 11157 129409.6              256.35             243.75    -63.9651   -63.321 0.794044
 11189 129780.8              257.865             245.318    -66.5045   -66.3239 0.786415
 11221 130152.0              259.425             246.878    -69.5532   -69.237 0.777899
 11253 130523.2              260.985             248.442    -72.7858   -72.5485 0.768266
 11285 130894.4              262.534             250.009    -76.8796   -76.6922 0.757300
 11317 131265.6              264.05             251.572    -81.8612   -81.7196 0.744789
 11349 131636.8              265.616             253.13    -87.3616   -87.1831 0.730416
 11381 132008.0              267.155             254.691    -93.9396   -93.7837 0.713698
 11413 132379.2              268.703             256.246   -101.86  -101.955 0.694174
 11445 132750.4              270.265             257.805   -111.516  -111.794 0.670980
 11477 133121.6              271.782             259.36   -123.461  -123.821 0.643176
 11509 133492.8              273.35             260.912   -137.917  -138.596 0.609313
 11541 133864.0              274.892             262.467   -156.16  -157.028 0.566938
 11573 134235.2              276.453             264.02   -178.429  -179.452 0.512494
 11605 134606.4              278.018             265.58   -206.34  -207.166 0.439100
 11637 134977.6              279.561             267.147   -241.123  -241.953 0.333667
 11669 135348.8              281.103             268.716   -282.804  -283.363 0.166542
 11701 135720.0              282.643             270.282   -320.416  -320.992      NaN
 11733 136091.2              284.187             271.848   -339.526  -340.246      NaN
 11765 136462.4              285.734             273.415   -329.444  -330.37      NaN
 11797 136833.6              287.284             274.985   -346.931  -347.482      NaN
 11829 137204.8              288.833             276.553   -398.009  -399.005      NaN
 11861 137576.0              290.38             278.118   -513.073  -514.351      NaN
 11893 137947.2              291.903             279.685   -315.855  -316.863      NaN
 11925 138318.4              293.461             281.263   -159.171  -160.299      NaN
 11957 138689.6              294.996             282.841   -109.788  -111.228      NaN
 11989 139060.8              296.556             284.418    -94.1676   -95.5451      NaN
 12021 139432.0              298.087             285.993    -89.235   -90.6083      NaN
 12053 139803.2              299.291             287.556    -87.4327   -88.9393      NaN
 12085 140174.4              299.228             288.98    -84.6636   -85.9505      NaN
 12100 140348.4              299.191             289.576    -81.8338   -83.3958      NaN