File: z_unorganized_archive/i_data/46C/Blank.csv
"Blank - Large HF - -196C to 46C, 0.1 Kmin",,,,
Creation Date : 10/10/2022 9:35:14 AM,,,,
User : admin,,,,
,,,,
HeatFlow :,,,,
 Initial Mass : 0 mg,,,,
 Molar Mass : 17 g/mol,,,,
,,,,
Index,Time(s),Furnace Temperature(K),Sample Temperature(K),HeatFlow(mW)
1,0,318.952,319.0661,-789.414
60,1044.3,317.93,318.798,-9.76473
119,2088.6,316.143,318.2,-0.409148
178,3132.9,310.813,316.557,-0.427884
237,4177.2,302.407,312.827,-0.418943
296,5221.5,294.059,307.379,-0.138687
355,6265.8,286.224,301.041,0.252775
414,7310.1,278.925,294.338,0.163144
473,8354.4,272.059,287.619,0.175956
532,9398.7,265.553,280.954,0.437221
591,10443,259.384,274.47,0.780984
650,11487.3,253.58,268.232,0.841027
709,12531.6,248.026,262.252,0.874977
768,13575.9,242.666,256.51,1.048856
827,14620.2,237.526,250.99,1.411824
886,15664.5,232.361,245.646,1.442468
945,16708.8,227.33,240.424,1.879189
1004,17753.1,222.661,235.368,1.439178
1063,18797.4,218.31,230.544,1.474395
1122,19841.7,214.082,225.938,1.632941
1181,20886,209.945,221.499,1.305825
1240,21930.3,205.864,217.208,1.709289
1299,22974.6,201.84,213.018,1.263449
1358,24018.9,198.05,208.947,1.175532
1417,25063.2,194.326,205.002,0.749797
1476,26107.5,190.643,201.159,0.746547
1535,27151.8,187.063,197.403,0.035678
1594,28196.1,183.559,193.747,-0.526603
1653,29240.4,180.025,190.158,-0.818459
1712,30284.7,176.616,186.612,-0.710695
1771,31329,173.465,183.178,-0.492609
1830,32373.3,170.348,179.853,-0.933173
1889,33417.6,167.26,176.613,-0.360995
1948,34461.9,164.202,173.433,-0.482511
2007,35506.2,161.321,170.3357,-0.264937
2066,36550.5,158.389,167.317,-0.53607
2125,37594.8,155.663,164.359,-0.370531
2184,38639.1,152.637,161.43,-0.056343
2243,39683.4,150.106,158.556,-0.208237
2302,40727.7,147.491,155.819,-0.294052
2361,41772,144.756,153.057,0.016485
2420,42816.3,142.241,150.37,-0.329367
2479,43860.6,139.642,147.724,-0.42918
2538,44904.9,136.963,145.094,-0.250697
2597,45949.2,134.372,142.45,-0.179552
2656,46993.5,131.895,139.831,-0.359829
2715,48037.8,129.597,137.315,-0.33111
2774,49082.1,127.166,134.828,-0.444471
2833,50126.4,124.986,132.401,-0.401544
2892,51170.7,122.736,130.043,-0.362268
2951,52215,120.533,127.721,-0.145739
3010,53259.3,118.696,125.484,-0.415135
3069,54303.6,116.84,123.364,-0.19824
3128,55347.9,115.103,121.34,-0.057825
3187,56392.2,113.415,119.395,-0.168396
3246,57436.5,111.815,117.529,-0.177579
3305,58480.8,110.368,115.755,-0.155848
3364,59525.1,108.975,114.076,-0.251011
3423,60569.4,107.832,112.521,-0.190267
3482,61613.7,106.6,111.079,-0.199046
3541,62658,105.371,109.673,-0.157149
3600,63702.3,104.258,108.344,-0.154625
3659,64746.6,103.358,107.103,-0.196145
3718,65790.9,102.457,105.968,-0.213905
3777,66835.2,101.551,104.893,-0.230268
3836,67879.5,100.724,103.862,-0.223683
3895,68923.8,100.241,102.942,-0.294325
3954,69968.1,99.7013,102.149,-0.290609
4013,71012.4,99.1684,101.416,-0.336272
4072,72056.7,98.7759,100.76,-0.355831
4131,73101,98.5387,100.218,-0.39205
4190,74145.3,98.3728,99.7543,-0.432031
4249,75189.6,98.3819,99.4171,-0.472501
4308,76233.9,98.4543,99.1847,-0.524608
4367,77278.2,98.4998,99.0291,-0.544307
4426,78322.5,98.7071,98.9597,-0.59692
4485,79366.8,98.7964,98.9506,-0.600701
4544,80411.1,98.8553,98.9688,-0.604003
4603,81455.4,99.0231,99.0015,-0.643887
4662,82499.7,99.1314,99.0765,-0.630924
4721,83544,99.35311,99.1685,-0.659239
4780,84588.3,99.4895,99.29,-0.657881
4839,85632.6,99.7426,99.4292,-0.689909
4898,86676.9,99.8596,99.5787,-0.681604
4957,87721.2,99.95896,99.7235,-0.667276
5016,88765.5,100.132,99.854,-0.664182
5075,89809.8,100.289,100.002,-0.673451
5134,90854.1,100.452,100.154,-0.670576
5193,91898.4,100.597,100.307,-0.673744
5252,92942.7,100.727,100.452,-0.66689
5311,93987,100.87,100.592,-0.658406
5370,95031.3,100.954,100.726,-0.665366
5429,96075.6,101.149,100.864,-0.672953
5488,97119.9,101.278,101.008,-0.66948
5547,98164.2,101.329,101.134,-0.647108
5606,99208.5,101.342,101.237,-0.645225
5665,100252.8,101.398,101.323,-0.641103
5724,101297.1,101.476,101.392,-0.627098
5783,102341.4,103.708,101.769,-0.962435
5842,103385.7,105.427,102.571,-1.091237
5901,104430,107.171,103.632,-1.20802
5960,105474.3,108.921,104.874,-1.265694
6019,106518.6,110.66,106.252,-1.315485
6078,107562.9,112.408,107.728,-1.361743
6137,108607.2,114.157,109.271,-1.367911
6196,109651.5,115.899,110.864,-1.372333
6255,110695.8,117.636,112.496,-1.365713
6314,111740.1,119.373,114.149,-1.374874
6373,112784.4,121.124,115.821,-1.371561
6432,113828.7,122.845,117.504,-1.336491
6491,114873,124.592,119.196,-1.326184
6550,115917.3,126.345,120.898,-1.327701
6609,116961.6,128.078,122.603,-1.304745
6668,118005.9,129.814,124.312,-1.287748
6727,119050.2,131.57,126.02,-1.270119
6786,120094.5,133.296,127.7423,-1.260333
6845,121138.8,135.05,129.463,-1.235284
6904,122183.1,136.784,131.186,-1.211099
6963,123227.4,138.53,132.91,-1.213263
7022,124271.7,140.263,134.635,-1.195821
7081,125316,141.998,136.363,-1.170367
7140,126360.3,143.747,138.084,-1.164062
7199,127404.6,145.489,139.81,-1.13519
7258,128448.9,147.229,141.537,-1.129988
7317,129493.2,148.97,143.267,-1.109716
7376,130537.5,150.71,145.001,-1.106239
7435,131581.8,152.45,146.737,-1.087919
7494,132626.1,154.191,148.474,-1.067268
7553,133670.4,155.93,150.212,-1.049739
7612,134714.7,157.67,151.953,-1.017216
7671,135759,159.406,153.692,-1.018892
7730,136803.3,161.148,155.437,-0.986303
7789,137847.6,162.885,157.181,-0.999042
7848,138891.9,164.63,158.926,-0.954018
7907,139936.2,166.375,160.67,-0.929202
7966,140980.5,168.117,162.415,-0.929956
8025,142024.8,169.847,164.16,-0.888232
8084,143069.1,171.594,165.905,-0.879069
8143,144113.4,173.335,167.651,-0.843872
8202,145157.7,175.072,169.396,-0.804457
8261,146202,176.815,171.14,-0.795552
8320,147246.3,178.557,172.886,-0.783459
8379,148290.6,180.298,174.634,-0.662964
8438,149334.9,182.032,176.381,-0.655492
8497,150379.2,183.776,178.125,-0.659794
8556,151423.5,185.521,179.869,-0.591921
8615,152467.8,187.252,181.613,-0.606823
8674,153512.1,189.001,183.357,-0.564061
8733,154556.4,190.743,185.104,-0.382587
8792,155600.7,192.483,186.853,-0.418758
8851,156645,194.226,188.606,-0.359231
8910,157689.3,195.964,190.361,-0.20517
8969,158733.6,197.702,192.121,-0.361187
9028,159777.9,199.438,193.876,-0.314465
9087,160822.2,201.182,195.629,-0.156101
9146,161866.5,202.928,197.384,-0.278425
9205,162910.8,204.664,199.138,-0.303491
9264,163955.1,206.4,200.893,0.016743
9323,164999.4,208.15,202.649,-0.109111
9382,166043.7,209.881,204.403,-0.006066
9441,167088,211.633,206.154,0.102039
9500,168132.3,213.359,207.909,0.109178
9559,169176.6,215.101,209.658,0.242092
9618,170220.9,216.844,211.41,0.196738
9677,171265.2,218.587,213.16,0.053959
9736,172309.5,220.327,214.913,0.317631
9795,173353.8,222.068,216.667,0.193804
9854,174398.1,223.81,218.418,0.570984
9913,175442.4,225.547,220.167,0.271494
9972,176486.7,227.294,221.918,0.28085
10031,177531,229.032,223.673,0.530742
10090,178575.3,230.771,225.428,0.166685
10149,179619.6,232.512,227.18,0.298423
10208,180663.9,234.253,228.932,0.613654
10267,181708.2,235.992,230.685,0.404612
10326,182752.5,237.733,232.435,0.308362
10385,183796.8,239.472,234.187,0.409427
10444,184841.1,241.209,235.935,0.434664
10503,185885.4,242.959,237.682,0.504489
10562,186929.7,244.69,239.43,0.354091
10621,187974,246.439,241.178,0.479911
10680,189018.3,248.169,242.928,0.617709
10739,190062.6,249.918,244.674,0.494356
10798,191106.9,251.653,246.426,0.561852
10857,192151.2,253.395,248.172,0.473829
10916,193195.5,255.142,249.918,0.545784
10975,194239.8,256.876,251.667,0.531927
11034,195284.1,258.617,253.413,0.536919
11093,196328.4,260.36,255.162,0.490018
11152,197372.7,262.1,256.909,0.449377
11211,198417,263.84,258.657,0.540499
11270,199461.3,265.579,260.405,0.609016
11329,200505.6,267.322,262.153,0.565042
11388,201549.9,269.065,263.903,0.57072
11447,202594.2,270.804,265.653,0.547117
11506,203638.5,272.543,267.405,0.476828
11565,204682.8,274.285,269.154,0.484529
11624,205727.1,276.021,270.903,0.52836
11683,206771.4,277.762,272.65,0.540539
11742,207815.7,279.504,274.393,0.535758
11801,208860,281.247,276.141,0.593655
11860,209904.3,282.984,277.885,0.581973
11919,210948.6,284.721,279.626,0.60698
11978,211992.9,286.465,281.37,0.62019
12037,213037.2,288.209,283.115,0.661452
12096,214081.5,289.944,284.859,0.667581
12155,215125.8,291.687,286.602,0.692302
12214,216170.1,293.425,288.343,0.71938
12273,217214.4,295.168,290.081,0.750884
12332,218258.7,296.91,291.82,0.822542
12391,219303,298.643,293.548,0.791562
12450,220347.3,300.39,295.266,0.80944
12509,221391.6,302.119,297.014,0.845815
12568,222435.9,303.873,298.757,0.85826
12627,223480.2,305.608,300.498,0.889703
12686,224524.5,307.348,302.237,0.922958
12745,225568.8,309.093,303.978,0.950166
12804,226613.1,310.83,305.722,0.979025
12863,227657.4,312.577,307.467,0.97516
12922,228701.7,314.314,309.216,1.036583
12981,229746,316.052,310.964,1.084803
13040,230790.3,317.794,312.705,1.103961
13099,231834.6,319.211,314.434,1.15577
13158,232878.9,319.159,315.724,1.092603
13217,233923.2,319.153,316.544,1.080109
13276,234967.5,319.152,317.065,1.071419
13335,236011.8,319.147,317.391,1.055631
13394,237056.1,319.151,317.593,1.056994
13453,238100.4,319.163,317.727,1.060942
13512,239144.7,319.151,317.825,1.072511
13571,240189,319.15,317.889,1.060311
13630,241233.3,319.141,317.912,1.031267
13689,242277.6,319.162,317.925,1.023157
13748,243321.9,319.157,317.952,1.042206
13807,244366.2,319.16,317.975,1.037632
13866,245410.5,319.152,318,1.042338
13925,246454.8,319.164,318.022,1.054977
13984,247499.1,319.164,318.055,1.070307
14043,248543.4,319.162,318.091,1.078041
14102,249587.7,319.16,318.125,1.078352
14161,250632,319.151,318.154,1.071749
14220,251676.3,319.15,318.174,1.059249
14279,252720.6,319.151,318.184,1.078475
14338,253764.9,319.153,318.19,1.096523
14397,254809.2,319.149,318.197,1.113221
14456,255853.5,319.15,318.2,1.118112
14515,256897.8,319.148,318.201,1.105119
14574,257942.1,319.15,318.202,1.094995
14633,258986.4,319.149,318.203,1.083859
14692,260030.7,319.152,318.206,1.100054
14751,261075,319.151,318.209,1.1068
14810,262119.3,319.151,318.211,1.116247
14869,263163.6,319.152,318.215,1.112026
14928,264207.9,319.147,318.217,1.110843
14956,264703.5,319.146,318.217,1.120629