File: z_unorganized_archive/i_data/46C/H2O-NH3_2.84wt%_1ml.csv
"H2O-NH3 2.84wt% Specific Heat - Low HF, 1mL",,,,
Creation Date : 9/22/2022 11:21:05 AM,,,,
User : admin,,,,
,,,,
HeatFlow :,,,,
 Initial Mass : 964.2 mg,,,,
 Molar Mass : 17 g/mol,,,,
,,,,
Index,Time(s),Furnace Temperature(K),Sample Temperature(K),HeatFlow(mW)
1,0,299.128,299.179,5.359686
59,1026.6,298.898,299.148,0.177896
117,2053.2,296.305,298.737,1.557733
175,3079.8,289.083,296.611,8.583275
233,4106.4,281.056,292.491,16.8689
291,5133,273.454,287.111,22.2678
349,6159.6,266.468,281.098,25.0181
407,7186.2,260.088,274.915,26.4427
465,8212.8,254.24,268.831,26.3608
523,9239.4,248.704,262.944,26.002
581,10266,243.422,257.278,25.5
639,11292.6,238.376,251.862,53.9647
697,12319.2,233.47,246.617,23.4943
755,13345.8,228.748,241.554,18.74669
813,14372.4,224.286,236.693,15.9284
871,15399,220.004,232.031,13.8405
929,16425.6,215.781,227.539,12.839
987,17452.2,211.739,223.194,10.75997
1045,18478.8,207.836,219,9.846043
1103,19505.4,204.093,214.958,8.903475
1161,20532,200.47,211.054,8.067272
1219,21558.6,196.992,207.287,7.752815
1277,22585.2,193.68,203.66,6.884978
1335,23611.8,190.469,200.168,6.198121
1393,24638.4,187.361,196.799,5.799866
1451,25665,184.363,193.545,5.386659
1509,26691.6,181.558,190.415,5.101338
1567,27718.2,178.87,187.417,4.753477
1625,28744.8,176.273,184.54,4.835331
1683,29771.4,173.757,181.773,4.348227
1741,30798,171.312,179.103,3.821585
1799,31824.6,168.93,176.52,3.513144
1857,32851.2,166.625,174.017,3.478337
1915,33877.8,164.408,171.595,3.38849
1973,34904.4,162.25,169.251,3.251603
2031,35931,160.091,166.971,3.394419
2089,36957.6,157.964,164.736,2.935289
2147,37984.2,155.917,162.55,3.054073
2205,39010.8,154,160.43,3.265913
2263,40037.4,152.121,158.387,3.064045
2321,41064,150.098,156.367,3.114639
2379,42090.6,148.14,154.364,2.858015
2437,43117.2,146.255,152.389,3.125188
2495,44143.8,144.446,150.454,2.723779
2553,45170.4,142.732,148.572,2.88649
2611,46197,141.089,146.753,2.664489
2669,47223.6,139.537,144.996,2.479124
2727,48250.2,138.048,143.314,2.340622
2785,49276.8,136.576,141.691,2.525234
2843,50303.4,135.097,140.111,2.572609
2901,51330,133.717,138.573,2.066255
2959,52356.6,132.405,137.09,2.122246
3017,53383.2,131.155,135.665,2.004783
3075,54409.8,129.945,134.295,1.867228
3133,55436.4,128.769,132.97,1.750381
3191,56463,127.657,131.701,1.77499
3249,57489.6,126.5,130.474,1.649936
3307,58516.2,125.384,129.273,1.516945
3365,59542.8,124.378,128.107,1.543396
3423,60569.4,123.377,126.989,1.440751
3481,61596,122.428,125.904,1.266632
3539,62622.6,121.463,124.858,1.373583
3597,63649.2,120.605,123.853,1.138547
3655,64675.8,119.72,122.887,1.072613
3713,65702.4,118.731,121.926,1.199069
3771,66729,117.925,120.983,1.24474
3829,67755.6,117.176,120.087,1.156727
3887,68782.2,116.447,119.237,1.097362
3945,69808.8,115.774,118.424,1.053306
4003,70835.4,114.95,117.626,1.054962
4061,71862,114.381,116.857,1.012937
4119,72888.6,113.718,116.138,0.946114
4177,73915.2,113.114,115.437,0.962622
4235,74941.8,112.479,114.752,0.957428
4293,75968.4,111.895,114.089,0.975273
4351,76995,111.308,113.45,0.969949
4409,78021.6,110.801,112.843,0.902867
4467,79048.2,110.287,112.257,0.888608
4525,80074.8,109.676,111.676,0.872109
4583,81101.4,109.24,111.112,0.831279
4641,82128,108.715,110.573,0.814458
4699,83154.6,108.319,110.051,0.769424
4757,84181.2,107.8702,109.561,0.745009
4815,85207.8,107.441,109.078,0.717471
4873,86234.4,107.257,108.651,0.605496
4931,87261,107.164,108.302,0.483309
4989,88287.6,106.896,108,0.446684
5047,89314.2,106.859,107.734,0.373258
5105,90340.8,106.798,107.538,0.278191
5163,91367.4,106.614,107.354,0.281416
5221,92394,106.42,107.17,0.276815
5279,93420.6,106.151,106.97,0.314631
5337,94447.2,105.999,106.775,0.29139
5395,95473.8,105.881,106.582,0.269715
5453,96500.4,105.826,106.435,0.219162
5511,97527,105.814,106.307,0.174258
5569,98553.6,105.698,106.205,0.170756
5627,99580.2,105.635,106.1,0.154578
5685,100606.8,105.655,106.019,0.114177
5743,101633.4,105.645,105.963,0.089372
5801,102660,105.682,105.926,0.056087
5859,103686.6,105.733,105.911,0.032223
5917,104713.2,107.655,106.11,-0.530074
5975,105739.8,109.352,106.784,-1.092984
6033,106766.4,111.075,107.7367,-1.474813
6091,107793,112.789,108.897,-1.766638
6149,108819.6,114.502,110.205,-1.975791
6207,109846.2,116.215,111.62,-2.139302
6265,110872.8,117.926,113.112,-2.260656
6323,111899.4,119.638,114.658,-2.366557
6381,112926,121.353,116.242,-2.452336
6439,113952.6,123.06,117.855,-2.527348
6497,114979.2,124.759,119.489,-2.637919
6555,116005.8,126.484,121.135,-2.755578
6613,117032.4,128.188,122.794,-2.734988
6671,118059,129.914,124.463,-2.731265
6729,119085.6,131.616,126.137,-2.734629
6787,120112.2,133.329,127.815,-2.751849
6845,121138.8,135.053,129.497,-2.766628
6903,122165.4,136.746,131.19,-2.772424
6961,123192,138.461,132.877,-2.777514
7019,124218.6,140.177,134.572,-2.801737
7077,125245.2,141.871,136.267,-2.805661
7135,126271.8,143.594,137.959,-2.816743
7193,127298.4,145.315,139.657,-2.841699
7251,128325,147.015,141.355,-2.842861
7309,129351.6,148.72,143.058,-2.843225
7367,130378.2,150.443,144.757,-2.836853
7425,131404.8,152.149,146.46,-2.75425
7483,132431.4,153.863,148.163,-2.495125
7541,133458,155.571,149.871,-1.770653
7599,134484.6,157.284,151.584,-0.440277
7657,135511.2,158.997,153.297,0.632985
7715,136537.8,160.705,155.009,-0.562975
7773,137564.4,162.413,156.719,-2.635345
7831,138591,164.128,158.432,-2.763755
7889,139617.6,165.848,160.147,-2.764288
7947,140644.2,167.553,161.866,-2.817206
8005,141670.8,169.259,163.585,-2.76608
8063,142697.4,170.975,165.299,-2.805666
8121,143724,172.685,167.017,-2.833971
8179,144750.6,174.39,168.736,-2.831303
8237,145777.2,176.102,170.452,-3.587464
8295,146803.8,177.821,172.167,0.953853
8353,147830.4,179.527,173.883,-2.801208
8411,148857,181.238,175.6,-3.594948
8469,149883.6,182.951,177.316,-15.579
8527,150910.2,184.662,179.034,-3.090925
8585,151936.8,186.373,180.753,-2.908052
8643,152963.4,188.084,182.473,-3.034407
8701,153990,189.786,184.194,-3.038159
8759,155016.6,191.505,185.912,-3.093326
8817,156043.2,193.216,187.631,-3.019108
8875,157069.8,194.925,189.353,-2.934387
8933,158096.4,196.639,191.074,-2.979882
8991,159123,198.346,192.797,-2.97372
9049,160149.6,200.056,194.518,-3.032789
9107,161176.2,201.774,196.232,-2.800276
9165,162202.8,203.482,197.948,-2.922959
9223,163229.4,205.191,199.665,-2.803772
9281,164256,206.903,201.379,-2.826704
9339,165282.6,208.612,203.098,-2.936832
9397,166309.2,210.327,204.813,-2.946037
9455,167335.8,212.036,206.529,-2.978465
9513,168362.4,213.756,208.25,-2.887921
9571,169389,215.459,209.974,-3.039418
9629,170415.6,217.178,211.699,-2.793799
9687,171442.2,218.886,213.429,-2.93041
9745,172468.8,220.59,215.156,-2.997504
9803,173495.4,222.303,216.881,-2.914741
9861,174522,224.022,218.608,-3.047963
9919,175548.6,225.729,220.339,-3.022226
9977,176575.2,227.43,222.066,-3.07032
10035,177601.8,229.147,223.789,-2.857276
10093,178628.4,230.864,225.508,-3.402322
10151,179655,232.566,227.232,-3.189762
10209,180681.6,234.276,228.951,-3.237485
10267,181708.2,235.996,230.671,-3.501921
10325,182734.8,237.702,232.392,-3.243916
10383,183761.4,239.414,234.115,-3.427291
10441,184788,241.129,235.837,-3.648844
10499,185814.6,242.83,237.559,-3.683868
10557,186841.2,244.546,239.278,-3.969414
10615,187867.8,246.265,241,-3.962925
10673,188894.4,247.965,242.72,-4.022018
10731,189921,249.684,244.441,-4.592828
10789,190947.6,251.386,246.166,-4.855897
10847,191974.2,253.101,247.884,-5.236123
10905,193000.8,254.814,249.605,-5.657018
10963,194027.4,256.526,251.324,-5.979347
11021,195054,258.236,253.046,-6.752957
11079,196080.6,259.944,254.769,-7.498068
11137,197107.2,261.658,256.485,-8.607444
11195,198133.8,263.365,258.209,-10.0927
11253,199160.4,265.074,259.924,-11.7511
11311,200187,266.793,261.643,-14.4904
11369,201213.6,268.497,263.358,-18.41158
11427,202240.2,270.22,265.075,-24.4688
11485,203266.8,271.921,266.797,-33.9556
11543,204293.4,273.63,268.511,-49.0435
11601,205320,275.342,270.221,-61.9883
11659,206346.6,277.055,271.934,-36.84585
11717,207373.2,278.766,273.655,-6.544469
11775,208399.8,280.48,275.377,-6.055428
11833,209426.4,282.191,277.096,-6.009888
11891,210453,283.901,278.818,-6.025065
11949,211479.6,285.609,280.537,-5.984474
12007,212506.2,287.323,282.255,-6.012579
12065,213532.8,289.034,283.974,-6.015256
12123,214559.4,290.74,285.687,-5.9986
12181,215586,292.451,287.396,-5.937728
12239,216612.6,294.164,289.103,-5.892396
12297,217639.2,295.869,290.811,-5.867544
12355,218665.8,297.584,292.511,-5.79394
12413,219692.4,299.292,294.201,-5.76252
12471,220719,301.009,295.895,-5.747768
12529,221745.6,302.716,297.61,-5.792089
12587,222772.2,304.437,299.324,-5.770968
12645,223798.8,306.132,301.037,-5.757166
12703,224825.4,307.853,302.741,-5.708931
12761,225852,309.566,304.446,-5.66986
12819,226878.6,311.274,306.155,-5.657735
12877,227905.2,312.982,307.863,-5.635809
12935,228931.8,314.693,309.573,-5.603801
12993,229958.4,316.407,311.281,-5.581575
13051,230985,318.122,312.992,-5.553613
13109,232011.6,319.195,314.656,-5.403865
13167,233038.2,319.159,315.843,-3.469004
13225,234064.8,319.154,316.603,-1.741071
13283,235091.4,319.148,317.091,-0.611893
13341,236118,319.152,317.396,0.136614
13399,237144.6,319.153,317.587,0.62271
13457,238171.2,319.157,317.706,0.926603
13515,239197.8,319.13,317.777,1.098922
13573,240224.4,319.144,317.804,1.302548
13631,241251,319.146,317.816,1.369325
13689,242277.6,319.144,317.814,1.405211
13747,243304.2,319.154,317.814,1.372353
13805,244330.8,319.149,317.823,1.337386
13863,245357.4,319.156,317.803,1.426837
13921,246384,319.157,317.8,1.356997
13979,247410.6,319.15,317.791,1.368303
14037,248437.2,319.138,317.787,1.324398
14095,249463.8,319.145,317.788,1.304116
14153,250490.4,319.163,317.771,1.384502
14211,251517,319.157,317.771,1.322366
14269,252543.6,319.129,317.778,1.267384
14327,253570.2,319.141,317.77,1.323779
14385,254596.8,319.151,317.764,1.327571
14443,255623.4,319.156,317.773,1.297346
14501,256650,319.143,317.789,1.273922
14559,257676.6,319.146,317.804,1.276406
14617,258703.2,319.166,317.818,1.258369
14675,259729.8,319.172,317.855,1.241313
14733,260756.4,319.164,317.894,1.239095
14791,261783,319.161,317.933,1.256464
14816,262225.5,319.158,317.947,1.263707