File: z_unorganized_archive/i_data_processed/0.25Kmin/1.6wt%_climb_proc.txt
 Index  Time(s)  Furnace Temperature(K)  Sample Temperature(K)  HeatFlow(mW)  Q_Corrected       Fc
  8501  98600.0              127.949             118.559    -16.3008   -13.8228      NaN
  8533  98971.2              129.498             119.651    -17.4694   -14.9257      NaN
  8565  99342.4              131.047             120.792    -18.6579   -16.045      NaN
  8597  99713.6              132.595             121.978    -19.8926   -17.2197      NaN
  8629 100084.8              134.146             123.202    -20.9348   -18.2144      NaN
  8661 100456.0              135.695             124.463    -21.386   -18.6365      NaN
  8693 100827.2              137.239             125.754    -21.831   -19.0439      NaN
  8725 101198.4              138.784             127.072    -22.3779   -19.5666      NaN
  8757 101569.6              140.334             128.414    -22.9094   -20.0716      NaN
  8789 101940.8              141.882             129.778    -23.4179   -20.5682      NaN
  8821 102312.0              143.429             131.163    -23.9176   -21.0625      NaN
  8853 102683.2              144.975             132.563    -24.3882   -21.5163      NaN
  8885 103054.4              146.523             133.98    -24.819   -21.9476      NaN
  8917 103425.6              148.071             135.411    -25.2436   -22.3633      NaN
  8949 103796.8              149.618             136.855    -25.6387   -22.7555      NaN
  8981 104168.0              151.165             138.309    -26.0136   -23.1341      NaN
  9013 104539.2              152.711             139.775    -26.381   -23.5068      NaN
  9045 104910.4              154.258             141.249    -26.7102   -23.8456      NaN
  9077 105281.6              155.802             142.73    -27.0379   -24.182      NaN
  9109 105652.8              157.354             144.219    -27.3705   -24.5174      NaN
  9141 106024.0              158.903             145.715    -27.6759   -24.8381      NaN
  9173 106395.2              160.441             147.218    -27.9469   -25.1112      NaN
  9205 106766.4              161.986             148.724    -28.1287   -25.3099      NaN
  9237 107137.6              163.543             150.235    -28.1641   -25.3651      NaN
  9269 107508.8              165.094             151.752    -27.9443   -25.143      NaN
  9301 107880.0              166.629             153.273    -27.2511   -24.4892      NaN
  9333 108251.2              168.172             154.796    -25.686   -22.9354      NaN
  9365 108622.4              169.726             156.32    -22.9464   -20.2244      NaN
  9397 108993.6              171.278             157.849    -19.5127   -16.8189      NaN
  9429 109364.8              172.821             159.381    -16.3492   -13.685      NaN
  9461 109736.0              174.364             160.916    -13.904   -11.2708      NaN
  9493 110107.2              175.915             162.451    -15.7713   -13.1546      NaN
  9525 110478.4              177.466             163.989    -22.1954   -19.6295      NaN
  9557 110849.6              179.005             165.528    -27.0277   -24.4956      NaN
  9589 111220.8              180.553             167.068    -29.0753   -26.5794      NaN
  9621 111592.0              182.102             168.61    -29.9595   -27.4858      NaN
  9653 111963.2              183.649             170.154    -30.9168   -28.4593      NaN
  9685 112334.4              185.202             171.699    -48.7015   -46.2991      NaN
  9717 112705.6              186.741             173.246    -51.9128   -49.5291      NaN
  9749 113076.8              188.287             174.797    -20.4094   -18.0802      NaN
  9781 113448.0              189.836             176.351    -19.5996   -17.3431 0.951036
  9813 113819.2              191.385             177.905    -84.5138   -82.2929 0.950620
  9845 114190.4              192.931             179.46    -51.908   -49.7205 0.950197
  9877 114561.6              194.473             181.02    -37.9457   -35.8271 0.949765
  9909 114932.8              196.022             182.581    -35.0839   -33.0168 0.949323
  9941 115304.0              197.57             184.143    -34.6463   -32.6235 0.948873
  9973 115675.2              199.12             185.708    -34.755   -32.7726 0.948412
 10005 116046.4              200.665             187.274    -35.0194   -33.1328 0.947941
 10037 116417.6              202.208             188.842    -35.2873   -33.3068 0.947457
 10069 116788.8              203.756             190.41    -35.541   -33.6174 0.946962
 10101 117160.0              205.301             191.979    -35.8194   -34.0144 0.946454
 10133 117531.2              206.85             193.548    -36.1042   -34.3536 0.945932
 10165 117902.4              208.4             195.119    -36.3894   -34.5899 0.945394
 10197 118273.6              209.943             196.69    -36.657   -35.0126 0.944841
 10229 118644.8              211.49             198.262    -37.0048   -35.4409 0.944270
 10261 119016.0              213.04             199.835    -37.2339   -35.5466 0.943682
 10293 119387.2              214.585             201.409    -37.5585   -35.9037 0.943073
 10325 119758.4              216.126             202.983    -37.8442   -36.2154 0.942444
 10357 120129.6              217.677             204.557    -38.2095   -36.6746 0.941792
 10389 120500.8              219.228             206.131    -38.5438   -37.3126 0.941115
 10421 120872.0              220.771             207.708    -38.8914   -37.4757 0.940412
 10453 121243.2              222.315             209.284    -39.2601   -37.7737 0.939681
 10485 121614.4              223.862             210.859    -39.4815   -37.9912 0.938919
 10517 121985.6              225.412             212.435    -39.828   -38.529 0.938125
 10549 122356.8              226.961             214.012    -40.2619   -38.7328 0.937293
 10581 122728.0              228.504             215.589    -40.6721   -39.466 0.936423
 10613 123099.2              230.048             217.166    -41.1184   -39.8591 0.935510
 10645 123470.4              231.6             218.743    -41.4581   -40.2481 0.934550
 10677 123841.6              233.145             220.321    -41.9424   -40.837 0.933539
 10709 124212.8              234.69             221.898    -42.3655   -41.3628 0.932472
 10741 124584.0              236.238             223.475    -42.839   -41.9413 0.931342
 10773 124955.2              237.782             225.051    -43.3676   -42.4754 0.930145
 10805 125326.4              239.331             226.627    -43.8548   -42.9042 0.928871
 10837 125697.6              240.882             228.204    -44.4459   -43.5993 0.927512
 10869 126068.8              242.425             229.781    -45.0739   -44.0397 0.926057
 10901 126440.0              243.972             231.358    -45.6409   -44.7666 0.924498
 10933 126811.2              245.519             232.935    -46.3492   -45.4591 0.922817
 10965 127182.4              247.066             234.51    -47.0951   -46.347 0.921002
 10997 127553.6              248.613             236.089    -47.8538   -47.1905 0.919028
 11029 127924.8              250.161             237.667    -48.8477   -47.9125 0.916878
 11061 128296.0              251.706             239.245    -49.8543   -49.0669 0.914525
 11093 128667.2              253.249             240.823    -50.856   -50.3898 0.911938
 11125 129038.4              254.795             242.4    -52.1243   -51.7278 0.909081
 11157 129409.6              256.342             243.977    -53.3871   -52.7429 0.905906
 11189 129780.8              257.891             245.553    -54.8883   -54.7077 0.902361
 11221 130152.0              259.442             247.129    -56.6452   -56.329 0.898378
 11253 130523.2              260.985             248.706    -58.6696   -58.4323 0.893872
 11285 130894.4              262.532             250.283    -61.0052   -60.8179 0.888740
 11317 131265.6              264.076             251.858    -63.7577   -63.6161 0.882864
 11349 131636.8              265.624             253.433    -67.0393   -66.8608 0.876078
 11381 132008.0              267.167             255.007    -70.9673   -70.8114 0.868176
 11413 132379.2              268.713             256.578    -75.835   -75.9302 0.858893
 11445 132750.4              270.263             258.151    -81.8575   -82.1349 0.847837
 11477 133121.6              271.807             259.722    -89.4755   -89.8354 0.834500
 11509 133492.8              273.352             261.292    -99.3457  -100.025 0.818105
 11541 133864.0              274.903             262.861   -112.203  -113.07 0.797486
 11573 134235.2              276.449             264.429   -129.475  -130.498 0.770641
 11605 134606.4              277.998             265.997   -152.742  -153.567 0.734056
 11637 134977.6              279.544             267.564   -184.37  -185.2 0.680551
 11669 135348.8              281.087             269.129   -227.362  -227.921 0.592771
 11701 135720.0              282.628             270.689   -288.054  -288.63 0.413539
 11733 136091.2              284.183             272.244   -370.209  -370.929      NaN
 11765 136462.4              285.724             273.796   -478.723  -479.649      NaN
 11797 136833.6              287.276             275.343   -581.66  -582.211      NaN
 11829 137204.8              288.826             276.888   -671.885  -672.881      NaN
 11861 137576.0              290.372             278.435   -700.896  -702.174      NaN
 11893 137947.2              291.906             279.99   -402.208  -403.216      NaN
 11925 138318.4              293.456             281.564   -188.035  -189.162      NaN
 11957 138689.6              295.006             283.143   -120.229  -121.669      NaN
 11989 139060.8              296.547             284.72    -99.2672  -100.645      NaN
 12021 139432.0              298.103             286.295    -92.2047   -93.578      NaN
 12053 139803.2              299.319             287.867    -89.7702   -91.2768      NaN
 12085 140174.4              299.216             289.294    -86.8477   -88.1346      NaN
 12100 140348.4              299.19             289.89    -83.8368   -85.3987      NaN