File: z_unorganized_archive/i_data_processed/0.25Kmin/3.2wt%_climb_proc.txt
 Index  Time(s)  Furnace Temperature(K)  Sample Temperature(K)  HeatFlow(mW)  Q_Corrected       Fc
  8501  98600.0              127.957             117.518    -18.1609   -15.6829      NaN
  8533  98971.2              129.505             118.728    -19.1953   -16.6516      NaN
  8565  99342.4              131.051             119.973    -20.2987   -17.6858      NaN
  8597  99713.6              132.6             121.251    -21.6388   -18.9659      NaN
  8629 100084.8              134.146             122.556    -23.1048   -20.3844      NaN
  8661 100456.0              135.695             123.888    -23.738   -20.9886      NaN
  8693 100827.2              137.242             125.241    -23.713   -20.926      NaN
  8725 101198.4              138.787             126.615    -23.9892   -21.1779      NaN
  8757 101569.6              140.336             128.006    -24.3858   -21.5481      NaN
  8789 101940.8              141.883             129.414    -24.7819   -21.9323      NaN
  8821 102312.0              143.43             130.836    -25.1749   -22.3198      NaN
  8853 102683.2              144.979             132.272    -25.5693   -22.6974      NaN
  8885 103054.4              146.524             133.72    -25.9203   -23.0489      NaN
  8917 103425.6              148.07             135.177    -26.2722   -23.3918      NaN
  8949 103796.8              149.618             136.645    -26.6309   -23.7477      NaN
  8981 104168.0              151.164             138.12    -26.9402   -24.0606      NaN
  9013 104539.2              152.711             139.603    -27.2625   -24.3884      NaN
  9045 104910.4              154.26             141.093    -27.5801   -24.7155      NaN
  9077 105281.6              155.805             142.591    -27.8655   -25.0096      NaN
  9109 105652.8              157.353             144.093    -28.1609   -25.3078      NaN
  9141 106024.0              158.901             145.601    -28.4431   -25.6052      NaN
  9173 106395.2              160.447             147.114    -28.6438   -25.8081      NaN
  9205 106766.4              161.994             148.631    -28.7107   -25.8919      NaN
  9237 107137.6              163.542             150.151    -28.4222   -25.6232      NaN
  9269 107508.8              165.089             151.675    -27.3375   -24.5362      NaN
  9301 107880.0              166.635             153.202    -24.7127   -21.9507      NaN
  9333 108251.2              168.182             154.732    -18.947   -16.1965      NaN
  9365 108622.4              169.729             156.265     -7.691625    -4.969582      NaN
  9397 108993.6              171.273             157.802      7.058360     9.752161      NaN
  9429 109364.8              172.823             159.339      9.407172    12.0713      NaN
  9461 109736.0              174.366             160.879     -9.548221    -6.915032      NaN
  9493 110107.2              175.915             162.417    -22.5164   -19.8997      NaN
  9525 110478.4              177.46             163.957    -26.34   -23.7741      NaN
  9557 110849.6              179.011             165.498    -27.9011   -25.369      NaN
  9589 111220.8              180.552             167.042    -28.8866   -26.3907      NaN
  9621 111592.0              182.098             168.585    -29.5732   -27.0995      NaN
  9653 111963.2              183.649             170.132    -30.8625   -28.4049      NaN
  9685 112334.4              185.193             171.679    -56.9583   -54.5559      NaN
  9717 112705.6              186.742             173.227    -72.8659   -70.4822      NaN
  9749 113076.8              188.293             174.783      8.776360    11.1056      NaN
  9781 113448.0              189.84             176.343    -12.6318   -10.3753 0.902076
  9813 113819.2              191.376             177.899    -98.5249   -96.3041 0.901244
  9845 114190.4              192.925             179.45    -96.236   -94.0486 0.900399
  9877 114561.6              194.476             181.009    -48.4251   -46.3066 0.899535
  9909 114932.8              196.022             182.573    -38.3683   -36.3013 0.898652
  9941 115304.0              197.574             184.138    -36.3397   -34.3168 0.897749
  9973 115675.2              199.115             185.705    -36.1312   -34.1487 0.896827
 10005 116046.4              200.66             187.271    -36.2837   -34.3971 0.895883
 10037 116417.6              202.209             188.839    -36.6052   -34.6247 0.894917
 10069 116788.8              203.757             190.408    -36.9582   -35.0347 0.893926
 10101 117160.0              205.299             191.978    -37.2353   -35.4304 0.892908
 10133 117531.2              206.849             193.547    -37.5053   -35.7547 0.891864
 10165 117902.4              208.401             195.118    -37.8393   -36.0398 0.890789
 10197 118273.6              209.946             196.691    -38.246   -36.6017 0.889681
 10229 118644.8              211.487             198.265    -38.6533   -37.0895 0.888539
 10261 119016.0              213.037             199.838    -39.0017   -37.3144 0.887361
 10293 119387.2              214.586             201.412    -39.412   -37.7572 0.886144
 10325 119758.4              216.131             202.988    -39.7866   -38.1578 0.884884
 10357 120129.6              217.676             204.562    -40.1378   -38.6029 0.883579
 10389 120500.8              219.224             206.136    -40.5796   -39.3483 0.882226
 10421 120872.0              220.769             207.712    -41.1181   -39.7024 0.880820
 10453 121243.2              222.317             209.288    -41.5428   -40.0564 0.879358
 10485 121614.4              223.869             210.865    -41.9823   -40.4919 0.877833
 10517 121985.6              225.41             212.441    -42.4693   -41.1702 0.876243
 10549 122356.8              226.958             214.018    -42.9754   -41.4463 0.874581
 10581 122728.0              228.505             215.594    -43.4994   -42.2933 0.872840
 10613 123099.2              230.054             217.171    -44.204   -42.9448 0.871013
 10645 123470.4              231.596             218.75    -44.8159   -43.606 0.869092
 10677 123841.6              233.143             220.328    -45.4799   -44.3745 0.867068
 10709 124212.8              234.692             221.905    -46.149   -45.1463 0.864933
 10741 124584.0              236.238             223.483    -46.8966   -45.999 0.862673
 10773 124955.2              237.784             225.059    -47.6044   -46.7122 0.860276
 10805 125326.4              239.331             226.636    -48.4472   -47.4966 0.857728
 10837 125697.6              240.876             228.213    -49.2609   -48.4143 0.855009
 10869 126068.8              242.426             229.789    -50.2011   -49.1669 0.852100
 10901 126440.0              243.976             231.367    -51.1898   -50.3155 0.848977
 10933 126811.2              245.52             232.945    -52.3882   -51.4981 0.845610
 10965 127182.4              247.064             234.521    -53.6589   -52.9108 0.841976
 10997 127553.6              248.611             236.1    -55.0203   -54.357 0.838027
 11029 127924.8              250.159             237.677    -56.4439   -55.5088 0.833728
 11061 128296.0              251.702             239.254    -58.2346   -57.4471 0.829022
 11093 128667.2              253.251             240.83    -60.0875   -59.6213 0.823852
 11125 129038.4              254.798             242.407    -62.1461   -61.7496 0.818134
 11157 129409.6              256.345             243.983    -64.5411   -63.897 0.811786
 11189 129780.8              257.895             245.559    -67.1714   -66.9908 0.804692
 11221 130152.0              259.438             247.136    -70.4014   -70.0852 0.796721
 11253 130523.2              260.985             248.712    -74.0153   -73.7779 0.787704
 11285 130894.4              262.532             250.288    -78.3097   -78.1224 0.777444
 11317 131265.6              264.077             251.863    -83.3354   -83.1938 0.765689
 11349 131636.8              265.626             253.437    -89.3251   -89.1466 0.752116
 11381 132008.0              267.171             255.013    -96.5665   -96.4106 0.736287
 11413 132379.2              268.72             256.587   -105.379  -105.474 0.717673
 11445 132750.4              270.268             258.162   -116.303  -116.581 0.695508
 11477 133121.6              271.812             259.735   -129.844  -130.204 0.668757
 11509 133492.8              273.36             261.307   -146.854  -147.533 0.635861
 11541 133864.0              274.904             262.88   -168.494  -169.362 0.594409
 11573 134235.2              276.452             264.449   -196.388  -197.411 0.540509
 11605 134606.4              277.999             266.019   -232.338  -233.163 0.466909
 11637 134977.6              279.547             267.586   -278.255  -279.084 0.359179
 11669 135348.8              281.095             269.152   -335.926  -336.484 0.182088
 11701 135720.0              282.639             270.715   -402.898  -403.475      NaN
 11733 136091.2              284.184             272.275   -475.941  -476.661      NaN
 11765 136462.4              285.726             273.833   -529.962  -530.887      NaN
 11797 136833.6              287.277             275.39   -517.521  -518.072      NaN
 11829 137204.8              288.828             276.956   -298.347  -299.343      NaN
 11861 137576.0              290.374             278.539   -153.341  -154.619      NaN
 11893 137947.2              291.918             280.122   -107.917  -108.925      NaN
 11925 138318.4              293.467             281.707    -93.7822   -94.9098      NaN
 11957 138689.6              295.016             283.29    -89.3513   -90.7915      NaN
 11989 139060.8              296.562             284.872    -87.9321   -89.3096      NaN
 12021 139432.0              298.107             286.453    -87.3897   -88.7629      NaN
 12053 139803.2              299.328             288.028    -87.0791   -88.5857      NaN
 12085 140174.4              299.24             289.462    -84.862   -86.1489      NaN
 12100 140348.4              299.214             290.062    -82.1124   -83.6743      NaN